#  wavelength    Flux         Std.Dev.
#  [Angstroem]   [F(5500)]    [N/A]

  6150.021   38750.4102    0.1
  6150.039   38929.6399    0.1
  6150.056   38968.4456    0.1
  6150.073   39009.1394    0.1
  6150.091   39064.7382    0.1
  6150.108   39135.1752    0.1
  6150.126   39401.3459    0.1
  6150.143   39668.7227    0.1
  6150.160   39855.3766    0.1
  6150.178   39711.4858    0.1
  6150.195   39451.3950    0.1
  6150.213   39166.4168    0.1
  6150.230   38615.8796    0.1
  6150.248   38055.5151    0.1
  6150.265   37445.9683    0.1
  6150.282   36633.0031    0.1
  6150.300   36096.4198    0.1
  6150.317   35698.1926    0.1
  6150.335   35504.3900    0.1
  6150.352   35468.0227    0.1
  6150.369   35596.0383    0.1
  6150.387   36135.4156    0.1
  6150.404   36676.3286    0.1
  6150.422   37664.7427    0.1
  6150.439   38568.5823    0.1
  6150.456   39117.7528    0.1
  6150.474   39822.7177    0.1
  6150.491   40304.7192    0.1
  6150.509   40786.8679    0.1
  6150.526   41289.4956    0.1
  6150.543   41480.2123    0.1
  6150.561   41450.8790    0.1
  6150.578   41414.7619    0.1
  6150.596   41328.0721    0.1
  6150.613   41093.0420    0.1
  6150.630   40418.4542    0.1
  6150.648   39984.9744    0.1
  6150.665   39485.4610    0.1
  6150.683   39615.1003    0.1
  6150.700   39419.7086    0.1
  6150.717   38576.1794    0.1
  6150.735   37564.0416    0.1
  6150.752   36227.6752    0.1
  6150.770   33823.8180    0.1
  6150.787   31493.4986    0.1
  6150.804   29542.3852    0.1
  6150.822   27303.8738    0.1
  6150.839   26234.5905    0.1
  6150.857   26317.1459    0.1
  6150.874   27825.8601    0.1
  6150.891   29383.7749    0.1
  6150.909   32042.7603    0.1
  6150.926   34424.1214    0.1
  6150.944   36351.3523    0.1
  6150.961   38477.1376    0.1
  6150.978   39543.2707    0.1
  6150.996   39988.6319    0.1
  6151.013   40381.9320    0.1
  6151.031   40373.7171    0.1
  6151.048   39974.7093    0.1
  6151.065   39113.8406    0.1
  6151.083   38222.1020    0.1
  6151.100   36563.8683    0.1
  6151.118   33736.5304    0.1
  6151.135   31153.1419    0.1
  6151.153   27061.6140    0.1
  6151.170   22850.8302    0.1
  6151.187   19637.6588    0.1
  6151.205   15356.3930    0.1
  6151.222   12622.4202    0.1
  6151.240   10951.9587    0.1
  6151.257   9573.6685    0.1
  6151.274   9172.6477    0.1
  6151.292   9247.1082    0.1
  6151.309   10061.3076    0.1
  6151.327   11112.5189    0.1
  6151.344   12976.6578    0.1
  6151.361   16211.2535    0.1
  6151.379   19572.6444    0.1
  6151.396   23782.6650    0.1
  6151.414   27502.1388    0.1
  6151.431   30573.7956    0.1
  6151.448   34444.5900    0.1
  6151.466   37210.6085    0.1
  6151.483   39045.5121    0.1
  6151.501   41040.7423    0.1
  6151.518   42582.4694    0.1
  6151.535   43254.5252    0.1
  6151.553   44193.0507    0.1
  6151.570   44622.5948    0.1
  6151.588   44608.3748    0.1
  6151.605   44652.9678    0.1
  6151.622   44815.1044    0.1
  6151.640   44494.8499    0.1
  6151.657   43916.9573    0.1
  6151.675   43260.4798    0.1
  6151.692   42592.5745    0.1
  6151.709   42007.5660    0.1
  6151.727   41702.2130    0.1
  6151.744   41529.8643    0.1
  6151.762   41698.5948    0.1
  6151.779   42009.2321    0.1
  6151.796   42572.8888    0.1
  6151.814   42938.6949    0.1
  6151.831   43188.1733    0.1
  6151.849   43769.0145    0.1
  6151.866   43939.9134    0.1
  6151.883   43806.3911    0.1
  6151.901   43694.7944    0.1
  6151.918   43616.8094    0.1
  6151.936   43566.8148    0.1
  6151.953   43533.9426    0.1
  6151.971   43492.4746    0.1
  6151.988   43478.0999    0.1
  6152.005   43755.5807    0.1
  6152.023   44033.6327    0.1
  6152.040   44382.7632    0.1
  6152.058   44905.9519    0.1
  6152.075   45251.4072    0.1
  6152.092   45415.1195    0.1
  6152.110   45630.6008    0.1
  6152.127   45681.4119    0.1
  6152.145   45320.0732    0.1
  6152.162   45195.0882    0.1
  6152.179   45021.9266    0.1
  6152.197   44253.6437    0.1
  6152.214   43620.6498    0.1
  6152.232   43179.3975    0.1
  6152.249   42663.8566    0.1
  6152.266   42411.6237    0.1
  6152.284   42429.1970    0.1
  6152.301   42673.8150    0.1
  6152.319   43009.4800    0.1
  6152.336   43568.1474    0.1
  6152.353   44128.9238    0.1
  6152.371   44602.2264    0.1
  6152.388   45040.3660    0.1
  6152.406   45039.6677    0.1
  6152.423   45116.3920    0.1
  6152.440   45498.7517    0.1
  6152.458   45271.0043    0.1
  6152.475   45082.1146    0.1
  6152.493   44440.5852    0.1
  6152.510   43670.1595    0.1
  6152.527   42673.4149    0.1
  6152.545   41149.7638    0.1
  6152.562   39742.4685    0.1
  6152.580   37682.3819    0.1
  6152.597   34907.9011    0.1
  6152.614   32845.3663    0.1
  6152.632   29413.5955    0.1
  6152.649   25839.2302    0.1
  6152.667   23168.0701    0.1
  6152.684   19308.1609    0.1
  6152.701   16811.6120    0.1
  6152.719   15162.6830    0.1
  6152.736   14279.6415    0.1
  6152.754   14933.1367    0.1
  6152.771   16201.8730    0.1
  6152.788   19916.1818    0.1
  6152.806   22609.0657    0.1
  6152.823   25888.5946    0.1
  6152.841   30171.7349    0.1
  6152.858   33151.4514    0.1
  6152.876   35628.5977    0.1
  6152.893   38026.2488    0.1
  6152.910   39449.7501    0.1
  6152.928   40875.9231    0.1
  6152.945   41893.5806    0.1
  6152.963   42722.8328    0.1
  6152.980   43355.7950    0.1
  6152.997   43772.3532    0.1
  6153.015   44081.8524    0.1
  6153.032   44369.4809    0.1
  6153.050   44562.5755    0.1
  6153.067   44785.3612    0.1
  6153.084   45066.1781    0.1
  6153.102   44989.5441    0.1
  6153.119   44710.9190    0.1
  6153.137   44655.2707    0.1
  6153.154   44477.6551    0.1
  6153.171   44109.5255    0.1
  6153.189   43540.3756    0.1
  6153.206   43271.1219    0.1
  6153.224   43156.0197    0.1
  6153.241   43096.4312    0.1
  6153.258   43149.5768    0.1
  6153.276   43458.3320    0.1
  6153.293   43835.1227    0.1
  6153.311   44087.3805    0.1
  6153.328   44323.6704    0.1
  6153.345   44631.8464    0.1
  6153.363   44893.6894    0.1
  6153.380   44888.1120    0.1
  6153.398   44859.2815    0.1
  6153.415   44642.2262    0.1
  6153.432   44571.8877    0.1
  6153.450   44278.5807    0.1
  6153.467   43987.2457    0.1
  6153.485   42998.6288    0.1
  6153.502   42044.3564    0.1
  6153.519   41033.6315    0.1
  6153.537   40057.4815    0.1
  6153.554   39519.3896    0.1
  6153.572   39204.6279    0.1
  6153.589   39260.1359    0.1
  6153.606   39575.9022    0.1
  6153.624   40348.2099    0.1
  6153.641   41257.7533    0.1
  6153.659   41812.6938    0.1
  6153.676   42624.2916    0.1
  6153.694   42762.3282    0.1
  6153.711   42842.2923    0.1
  6153.728   42885.3968    0.1
  6153.746   43019.4800    0.1
  6153.763   43097.0213    0.1
  6153.781   42985.5344    0.1
  6153.798   43058.5147    0.1
  6153.815   43183.2648    0.1
  6153.833   43378.6708    0.1
  6153.850   43326.4601    0.1
  6153.868   43197.0060    0.1
  6153.885   42889.6449    0.1
  6153.902   42536.5985    0.1
  6153.920   42017.9518    0.1
  6153.937   41490.0556    0.1
  6153.955   41244.8010    0.1
  6153.972   41228.9043    0.1
  6153.989   41433.8970    0.1
  6154.007   41583.9017    0.1
  6154.024   42083.3944    0.1
  6154.042   42740.8702    0.1
  6154.059   43557.9992    0.1
  6154.076   44046.0346    0.1
  6154.094   44569.4630    0.1
  6154.111   45059.1082    0.1
  6154.129   45718.5574    0.1
  6154.146   46038.6188    0.1
  6154.163   46150.5161    0.1
  6154.181   45857.2356    0.1
  6154.198   45626.7635    0.1
  6154.216   45573.3349    0.1
  6154.233   45421.6006    0.1
  6154.250   45090.5539    0.1
  6154.268   44782.8151    0.1
  6154.285   44360.0737    0.1
  6154.303   43948.6228    0.1
  6154.320   43462.8212    0.1
  6154.337   43145.7334    0.1
  6154.355   42909.9120    0.1
  6154.372   42669.1119    0.1
  6154.390   42496.9567    0.1
  6154.407   42494.9947    0.1
  6154.424   42547.5113    0.1
  6154.442   42986.3544    0.1
  6154.459   43007.2976    0.1
  6154.477   43338.8301    0.1
  6154.494   43706.9000    0.1
  6154.511   43967.2181    0.1
  6154.529   44082.3427    0.1
  6154.546   44152.8509    0.1
  6154.564   44178.7325    0.1
  6154.581   44344.1814    0.1
  6154.599   44525.6073    0.1
  6154.616   44716.6990    0.1
  6154.633   45035.2834    0.1
  6154.651   45070.3742    0.1
  6154.668   44956.5405    0.1
  6154.686   44965.7087    0.1
  6154.703   44585.9041    0.1
  6154.720   44174.7847    0.1
  6154.738   43564.7025    0.1
  6154.755   43234.2584    0.1
  6154.773   42872.0550    0.1
  6154.790   42616.3630    0.1
  6154.807   42605.6953    0.1
  6154.825   42776.4678    0.1
  6154.842   42901.3830    0.1
  6154.860   43026.9405    0.1
  6154.877   43213.2491    0.1
  6154.894   43265.8961    0.1
  6154.912   43406.5135    0.1
  6154.929   43719.8383    0.1
  6154.947   43852.7941    0.1
  6154.964   43941.2079    0.1
  6154.981   43948.6054    0.1
  6154.999   43979.8757    0.1
  6155.016   44041.5050    0.1
  6155.034   44051.0200    0.1
  6155.051   43945.2689    0.1
  6155.068   43759.1063    0.1
  6155.086   43441.1423    0.1
  6155.103   42796.3671    0.1
  6155.121   42196.6245    0.1
  6155.138   41333.7206    0.1
  6155.155   40337.5308    0.1
  6155.173   39486.1516    0.1
  6155.190   37991.0574    0.1
  6155.208   36538.9792    0.1
  6155.225   35113.9476    0.1
  6155.242   31778.4001    0.1
  6155.260   29049.2645    0.1
  6155.277   26181.0944    0.1
  6155.295   22399.3436    0.1
  6155.312   19689.7242    0.1
  6155.329   17719.2308    0.1
  6155.347   16774.3630    0.1
  6155.364   17273.2834    0.1
  6155.382   18631.7431    0.1
  6155.399   22011.1184    0.1
  6155.417   24598.3623    0.1
  6155.434   28019.6735    0.1
  6155.451   31490.5129    0.1
  6155.469   33930.4195    0.1
  6155.486   36047.0325    0.1
  6155.504   37480.4833    0.1
  6155.521   38227.1813    0.1
  6155.538   38760.1578    0.1
  6155.556   39012.5593    0.1
  6155.573   39111.4349    0.1
  6155.591   39258.0187    0.1
  6155.608   39394.2186    0.1
  6155.625   39545.8470    0.1
  6155.643   39893.2111    0.1
  6155.660   40218.9329    0.1
  6155.678   40458.4861    0.1
  6155.695   40838.2803    0.1
  6155.712   41341.7316    0.1
  6155.730   41534.5388    0.1
  6155.747   41643.0156    0.1
  6155.765   41847.9975    0.1
  6155.782   42110.3799    0.1
  6155.799   42171.8342    0.1
  6155.817   42174.6879    0.1
  6155.834   42177.0089    0.1
  6155.852   42352.9470    0.1
  6155.869   42478.1626    0.1
  6155.886   42433.7343    0.1
  6155.904   42716.2102    0.1
  6155.921   42681.4207    0.1
  6155.939   42468.9247    0.1
  6155.956   42707.3173    0.1
  6155.973   42953.4054    0.1
  6155.991   43037.2176    0.1
  6156.008   43092.2760    0.1
  6156.026   43190.6846    0.1
  6156.043   43340.1364    0.1
  6156.060   42799.0214    0.1
  6156.078   42225.5655    0.1
  6156.095   41471.4501    0.1
  6156.113   40318.5902    0.1
  6156.130   39456.8829    0.1
  6156.147   37931.2933    0.1
  6156.165   36173.6127    0.1
  6156.182   34674.8092    0.1
  6156.200   32885.3718    0.1
  6156.217   31439.9471    0.1
  6156.234   30561.2773    0.1
  6156.252   29987.9099    0.1
  6156.269   30225.6372    0.1
  6156.287   30745.4575    0.1
  6156.304   31716.3863    0.1
  6156.322   32790.7513    0.1
  6156.339   33783.8416    0.1
  6156.356   35075.5334    0.1
  6156.374   36251.0215    0.1
  6156.391   37303.6575    0.1
  6156.409   38736.0226    0.1
  6156.426   39605.7387    0.1
  6156.443   40262.2320    0.1
  6156.461   41154.7653    0.1
  6156.478   41595.2508    0.1
  6156.496   41909.3828    0.1
  6156.513   42224.6430    0.1
  6156.530   42374.9060    0.1
  6156.548   42433.2266    0.1
  6156.565   42549.5869    0.1
  6156.583   42507.5114    0.1
  6156.600   42609.0211    0.1
  6156.617   42958.9034    0.1
  6156.635   42962.8923    0.1
  6156.652   42917.9460    0.1
  6156.670   42632.3898    0.1
  6156.687   42412.3335    0.1
  6156.704   42300.6847    0.1
  6156.722   42118.3176    0.1
  6156.739   41866.6535    0.1
  6156.757   41510.2175    0.1
  6156.774   41461.1035    0.1
  6156.791   41446.7911    0.1
  6156.809   41536.4002    0.1
  6156.826   41827.4184    0.1
  6156.844   42138.6085    0.1
  6156.861   42615.9947    0.1
  6156.878   43211.1033    0.1
  6156.896   43614.3838    0.1
  6156.913   43842.1840    0.1
  6156.931   43870.7047    0.1
  6156.948   43799.2330    0.1
  6156.965   43364.5315    0.1
  6156.983   42543.5882    0.1
  6157.000   41607.9359    0.1
  6157.018   39812.9342    0.1
  6157.035   37413.9859    0.1
  6157.052   35386.8954    0.1
  6157.070   32329.4745    0.1
  6157.087   29329.6614    0.1
  6157.105   27220.5582    0.1
  6157.122   25120.0812    0.1
  6157.140   24539.8361    0.1
  6157.157   24940.7240    0.1
  6157.174   27159.0411    0.1
  6157.192   29826.6933    0.1
  6157.209   31663.9817    0.1
  6157.227   35217.0555    0.1
  6157.244   37609.7267    0.1
  6157.261   39418.9408    0.1
  6157.279   41226.3999    0.1
  6157.296   42022.7268    0.1
  6157.314   42288.7069    0.1
  6157.331   42299.8233    0.1
  6157.348   41977.7673    0.1
  6157.366   41515.1509    0.1
  6157.383   40822.8540    0.1
  6157.401   40374.0880    0.1
  6157.418   40088.7171    0.1
  6157.435   39593.0099    0.1
  6157.453   39340.3172    0.1
  6157.470   39306.8697    0.1
  6157.488   39359.4186    0.1
  6157.505   39483.1877    0.1
  6157.522   39645.9959    0.1
  6157.540   40093.8152    0.1
  6157.557   40431.5756    0.1
  6157.575   40576.3506    0.1
  6157.592   40919.0821    0.1
  6157.609   40942.0340    0.1
  6157.627   40920.9543    0.1
  6157.644   40775.5627    0.1
  6157.662   40699.4885    0.1
  6157.679   40629.6246    0.1
  6157.696   40701.1057    0.1
  6157.714   40849.4061    0.1
  6157.731   41171.8611    0.1
  6157.749   41486.6816    0.1
  6157.766   41757.1807    0.1
  6157.783   42136.1680    0.1
  6157.801   42214.1354    0.1
  6157.818   42124.0307    0.1
  6157.836   42009.0492    0.1
  6157.853   41752.5108    0.1
  6157.870   41501.0156    0.1
  6157.888   41218.3765    0.1
  6157.905   41182.0691    0.1
  6157.923   41272.9236    0.1
  6157.940   41399.4503    0.1
  6157.958   41868.8710    0.1
  6157.975   42230.4266    0.1
  6157.992   42673.8645    0.1
  6158.010   42979.3559    0.1
  6158.027   43222.1607    0.1
  6158.045   43469.0707    0.1
  6158.062   43567.9185    0.1
  6158.079   43603.8159    0.1
  6158.097   43692.7743    0.1
  6158.114   43727.9703    0.1
  6158.132   43584.4220    0.1
  6158.149   43339.2142    0.1
  6158.166   42991.2831    0.1
  6158.184   42730.7995    0.1
  6158.201   42466.0853    0.1
  6158.219   42194.3307    0.1
  6158.236   41894.1315    0.1
  6158.253   41827.8872    0.1
  6158.271   41864.6475    0.1
  6158.288   41978.3301    0.1
  6158.306   42243.3619    0.1
  6158.323   42430.5909    0.1
  6158.340   42568.5550    0.1
  6158.358   42577.5137    0.1
  6158.375   42004.4169    0.1
  6158.393   41321.3624    0.1
  6158.410   40135.5277    0.1
  6158.427   38653.5098    0.1
  6158.445   37500.7354    0.1
  6158.462   36139.8638    0.1
  6158.480   35648.3068    0.1
  6158.497   35561.7713    0.1
  6158.514   35815.1123    0.1
  6158.532   36451.6216    0.1
  6158.549   37073.2243    0.1
  6158.567   38001.8051    0.1
  6158.584   38676.3243    0.1
  6158.601   39083.2248    0.1
  6158.619   39147.0401    0.1
  6158.636   39092.8744    0.1
  6158.654   38924.1881    0.1
  6158.671   38144.6662    0.1
  6158.688   37332.1488    0.1
  6158.706   36514.5871    0.1
  6158.723   34875.3321    0.1
  6158.741   33162.0491    0.1
  6158.758   31496.6900    0.1
  6158.775   28168.4358    0.1
  6158.793   25780.2968    0.1
  6158.810   23650.2149    0.1
  6158.828   21146.5924    0.1
  6158.845   20007.6005    0.1
  6158.863   19598.9662    0.1
  6158.880   20289.2204    0.1
  6158.897   21447.1569    0.1
  6158.915   22839.7313    0.1
  6158.932   25041.6375    0.1
  6158.950   26957.5463    0.1
  6158.967   28712.5536    0.1
  6158.984   31413.7535    0.1
  6159.002   33234.4397    0.1
  6159.019   34761.7495    0.1
  6159.037   36927.6487    0.1
  6159.054   38106.1029    0.1
  6159.071   39113.1706    0.1
  6159.089   40608.3154    0.1
  6159.106   41531.2520    0.1
  6159.124   42184.3158    0.1
  6159.141   42800.3461    0.1
  6159.158   43017.1113    0.1
  6159.176   43037.5201    0.1
  6159.193   43110.2535    0.1
  6159.211   43113.5455    0.1
  6159.228   43096.0486    0.1
  6159.245   43000.4540    0.1
  6159.263   43071.3711    0.1
  6159.280   43107.9212    0.1
  6159.298   43025.0148    0.1
  6159.315   43112.5881    0.1
  6159.332   43119.0794    0.1
  6159.350   42948.8318    0.1
  6159.367   42757.7058    0.1
  6159.385   42445.6273    0.1
  6159.402   42024.8057    0.1
  6159.419   41656.7259    0.1
  6159.437   41426.3287    0.1
  6159.454   41134.9770    0.1
  6159.472   41023.8639    0.1
  6159.489   40780.7012    0.1
  6159.506   40545.1119    0.1
  6159.524   40005.2921    0.1
  6159.541   39500.8918    0.1
  6159.559   38695.0037    0.1
  6159.576   38091.3084    0.1
  6159.593   37563.3909    0.1
  6159.611   36499.0401    0.1
  6159.628   35856.4195    0.1
  6159.646   35420.5631    0.1
  6159.663   34962.2995    0.1
  6159.681   34887.4145    0.1
  6159.698   34968.4936    0.1
  6159.715   35340.4855    0.1
  6159.733   35688.9473    0.1
  6159.750   35981.0841    0.1
  6159.768   36335.8369    0.1
  6159.785   36527.2886    0.1
  6159.802   36661.4010    0.1
  6159.820   36892.7650    0.1
  6159.837   37048.0352    0.1
  6159.855   37153.3957    0.1
  6159.872   37235.3754    0.1
  6159.889   37322.9801    0.1
  6159.907   37303.5419    0.1
  6159.924   37451.8449    0.1
  6159.942   37633.9815    0.1
  6159.959   37729.5278    0.1
  6159.976   37547.8516    0.1
  6159.994   37204.8632    0.1
  6160.011   36785.4116    0.1
  6160.029   35717.7928    0.1
  6160.046   34799.2839    0.1
  6160.063   34149.5375    0.1
  6160.081   33322.5494    0.1
  6160.098   32989.2986    0.1
  6160.116   32802.4086    0.1
  6160.133   32489.6863    0.1
  6160.150   32237.0903    0.1
  6160.168   32229.8278    0.1
  6160.185   32109.6095    0.1
  6160.203   32120.1790    0.1
  6160.220   32222.7084    0.1
  6160.237   32621.7696    0.1
  6160.255   33090.4552    0.1
  6160.272   33452.1703    0.1
  6160.290   33958.0540    0.1
  6160.307   34337.4218    0.1
  6160.324   34535.1041    0.1
  6160.342   34603.0774    0.1
  6160.359   34126.0399    0.1
  6160.377   33505.7632    0.1
  6160.394   32680.8085    0.1
  6160.411   31879.2157    0.1
  6160.429   31225.7229    0.1
  6160.446   30309.2510    0.1
  6160.464   29534.9239    0.1
  6160.481   29165.5911    0.1
  6160.498   29197.7860    0.1
  6160.516   29747.8727    0.1
  6160.533   30436.0803    0.1
  6160.551   31488.7522    0.1
  6160.568   32659.8130    0.1
  6160.586   33552.8325    0.1
  6160.603   34548.3046    0.1
  6160.620   35429.9315    0.1
  6160.638   35998.9560    0.1
  6160.655   36830.6755    0.1
  6160.673   37613.6284    0.1
  6160.690   38213.0710    0.1
  6160.707   38873.8206    0.1
  6160.725   39268.0705    0.1
  6160.742   39446.4360    0.1
  6160.760   39456.7915    0.1
  6160.777   39177.1688    0.1
  6160.794   39023.8256    0.1
  6160.812   38915.4942    0.1
  6160.829   38811.1043    0.1
  6160.847   38770.1502    0.1
  6160.864   38822.9845    0.1
  6160.881   39130.6368    0.1
  6160.899   39403.9824    0.1
  6160.916   39599.0385    0.1
  6160.934   39754.4020    0.1
  6160.951   39951.4962    0.1
  6160.968   40100.1333    0.1
  6160.986   40272.3861    0.1
  6161.003   40344.3444    0.1
  6161.021   40358.2348    0.1
  6161.038   40364.6078    0.1
  6161.055   40263.0961    0.1
  6161.073   40009.5935    0.1
  6161.090   39563.4806    0.1
  6161.108   39216.5872    0.1
  6161.125   38949.4804    0.1
  6161.142   38415.4545    0.1
  6161.160   38221.3927    0.1
  6161.177   38120.1598    0.1
  6161.195   38088.7326    0.1
  6161.212   38119.6826    0.1
  6161.229   38098.7107    0.1
  6161.247   37618.5309    0.1
  6161.264   37119.5515    0.1
  6161.282   36544.3049    0.1
  6161.299   35575.9418    0.1
  6161.316   35002.7256    0.1
  6161.334   34648.6591    0.1
  6161.351   34559.9547    0.1
  6161.369   34754.1150    0.1
  6161.386   35063.8230    0.1
  6161.404   35695.3310    0.1
  6161.421   36238.7688    0.1
  6161.438   36724.3801    0.1
  6161.456   37307.2236    0.1
  6161.473   37803.0462    0.1
  6161.491   38215.1097    0.1
  6161.508   38825.6453    0.1
  6161.525   39321.9547    0.1
  6161.543   39641.6330    0.1
  6161.560   40146.6744    0.1
  6161.578   40387.2434    0.1
  6161.595   40495.9026    0.1
  6161.612   40321.5917    0.1
  6161.630   40012.5862    0.1
  6161.647   39668.9533    0.1
  6161.665   38714.5900    0.1
  6161.682   37636.4967    0.1
  6161.699   36618.9315    0.1
  6161.717   35081.9316    0.1
  6161.734   32970.1297    0.1
  6161.752   31267.1866    0.1
  6161.769   28128.6192    0.1
  6161.786   24952.0407    0.1
  6161.804   22298.7668    0.1
  6161.821   19122.3672    0.1
  6161.839   16458.9471    0.1
  6161.856   14979.7931    0.1
  6161.873   14196.6448    0.1
  6161.891   14867.3610    0.1
  6161.908   16194.3131    0.1
  6161.926   18094.2917    0.1
  6161.943   21807.6629    0.1
  6161.960   24057.9186    0.1
  6161.978   26889.7846    0.1
  6161.995   29668.4401    0.1
  6162.013   31567.2907    0.1
  6162.030   33468.2310    0.1
  6162.047   35327.0447    0.1
  6162.065   36397.4200    0.1
  6162.082   37244.6320    0.1
  6162.100   37988.0851    0.1
  6162.117   38279.2014    0.1
  6162.134   38312.6724    0.1
  6162.152   37843.5561    0.1
  6162.169   37248.0109    0.1
  6162.187   36551.6668    0.1
  6162.204   35322.1184    0.1
  6162.221   34203.7708    0.1
  6162.239   33003.2938    0.1
  6162.256   31077.3975    0.1
  6162.274   29363.2378    0.1
  6162.291   27607.2001    0.1
  6162.309   24841.5360    0.1
  6162.326   22480.8332    0.1
  6162.343   20400.6109    0.1
  6162.361   17581.4460    0.1
  6162.378   15732.2261    0.1
  6162.396   14685.7314    0.1
  6162.413   14032.8424    0.1
  6162.430   14621.1781    0.1
  6162.448   15534.3262    0.1
  6162.465   17650.9416    0.1
  6162.483   20794.1068    0.1
  6162.500   22915.8858    0.1
  6162.517   26306.1076    0.1
  6162.535   28910.2331    0.1
  6162.552   30660.1234    0.1
  6162.570   32307.3630    0.1
  6162.587   33170.7529    0.1
  6162.604   33588.7026    0.1
  6162.622   33909.4098    0.1
  6162.639   34043.7510    0.1
  6162.657   34198.5320    0.1
  6162.674   34419.8789    0.1
  6162.691   34475.6040    0.1
  6162.709   34484.1694    0.1
  6162.726   34428.5157    0.1
  6162.744   34255.8105    0.1
  6162.761   34103.4200    0.1
  6162.778   33917.0211    0.1
  6162.796   33757.8152    0.1
  6162.813   33626.0431    0.1
  6162.831   33473.0248    0.1
  6162.848   33109.2385    0.1
  6162.865   32820.1433    0.1
  6162.883   32556.0676    0.1
  6162.900   32064.4275    0.1
  6162.918   31584.7119    0.1
  6162.935   31165.2600    0.1
  6162.952   30299.0629    0.1
  6162.970   29675.9189    0.1
  6162.987   29120.2244    0.1
  6163.005   28013.1796    0.1
  6163.022   27067.7741    0.1
  6163.039   26244.9365    0.1
  6163.057   24594.7908    0.1
  6163.074   23122.2988    0.1
  6163.092   21773.8123    0.1
  6163.109   19858.4222    0.1
  6163.127   18084.3891    0.1
  6163.144   16536.8961    0.1
  6163.161   14546.7776    0.1
  6163.179   12596.8668    0.1
  6163.196   11325.9242    0.1
  6163.214   9819.1329    0.1
  6163.231   8533.2816    0.1
  6163.248   7749.5954    0.1
  6163.266   7045.5950    0.1
  6163.283   6672.4046    0.1
  6163.301   6633.3205    0.1
  6163.318   6743.3089    0.1
  6163.335   7265.6375    0.1
  6163.353   7961.4314    0.1
  6163.370   8751.3333    0.1
  6163.388   10277.2284    0.1
  6163.405   11623.9121    0.1
  6163.422   13014.9702    0.1
  6163.440   15193.3017    0.1
  6163.457   16663.1494    0.1
  6163.475   18220.0808    0.1
  6163.492   20696.0170    0.1
  6163.509   22309.3036    0.1
  6163.527   23709.2229    0.1
  6163.544   25490.7630    0.1
  6163.562   26875.4378    0.1
  6163.579   27927.0570    0.1
  6163.596   29449.4939    0.1
  6163.614   30440.4326    0.1
  6163.631   31196.0584    0.1
  6163.649   32082.6886    0.1
  6163.666   32566.8741    0.1
  6163.683   32805.9778    0.1
  6163.701   33016.5150    0.1
  6163.718   33118.5232    0.1
  6163.736   33296.9832    0.1
  6163.753   33603.7449    0.1
  6163.770   34200.4407    0.1
  6163.788   34683.6776    0.1
  6163.805   35205.1465    0.1
  6163.823   35674.4457    0.1
  6163.840   35924.0203    0.1
  6163.857   36081.2383    0.1
  6163.875   35986.0998    0.1
  6163.892   35904.3552    0.1
  6163.910   35877.1852    0.1
  6163.927   35721.4271    0.1
  6163.944   35632.5610    0.1
  6163.962   35502.0792    0.1
  6163.979   35408.7813    0.1
  6163.997   35427.6953    0.1
  6164.014   35378.1289    0.1
  6164.032   35342.5709    0.1
  6164.049   35365.0815    0.1
  6164.066   35428.6121    0.1
  6164.084   35721.0058    0.1
  6164.101   35883.4476    0.1
  6164.119   36016.1904    0.1
  6164.136   36136.7777    0.1
  6164.153   36222.0509    0.1
  6164.171   36318.4756    0.1
  6164.188   36405.9519    0.1
  6164.206   36664.8155    0.1
  6164.223   36873.6120    0.1
  6164.240   37095.1812    0.1
  6164.258   37586.7453    0.1
  6164.275   38167.3611    0.1
  6164.293   38698.7463    0.1
  6164.310   39209.3076    0.1
  6164.327   39483.0321    0.1
  6164.345   39719.1698    0.1
  6164.362   39329.0254    0.1
  6164.380   38676.5177    0.1
  6164.397   38109.9593    0.1
  6164.414   36439.8327    0.1
  6164.432   34817.0136    0.1
  6164.449   33304.7421    0.1
  6164.467   31098.8416    0.1
  6164.484   29185.4288    0.1
  6164.501   27544.3781    0.1
  6164.519   25463.8400    0.1
  6164.536   23568.8357    0.1
  6164.554   22160.0906    0.1
  6164.571   20602.8523    0.1
  6164.588   19213.7281    0.1
  6164.606   18189.4916    0.1
  6164.623   17009.4466    0.1
  6164.641   16119.0153    0.1
  6164.658   15884.6209    0.1
  6164.675   16240.3002    0.1
  6164.693   17328.8054    0.1
  6164.710   18778.4590    0.1
  6164.728   20027.0459    0.1
  6164.745   21383.2061    0.1
  6164.762   21598.4080    0.1
  6164.780   21363.0949    0.1
  6164.797   19733.1280    0.1
  6164.815   18206.9801    0.1
  6164.832   16728.1430    0.1
  6164.850   14963.0430    0.1
  6164.867   14376.9302    0.1
  6164.884   14412.0355    0.1
  6164.902   15589.4040    0.1
  6164.919   17609.6835    0.1
  6164.937   19622.5838    0.1
  6164.954   22802.1881    0.1
  6164.971   25951.1107    0.1
  6164.989   28293.5036    0.1
  6165.006   30951.5052    0.1
  6165.024   33103.7571    0.1
  6165.041   34451.6778    0.1
  6165.058   35653.9686    0.1
  6165.076   36958.1369    0.1
  6165.093   37759.3720    0.1
  6165.111   38497.9467    0.1
  6165.128   39236.5681    0.1
  6165.145   39546.5866    0.1
  6165.163   39779.8606    0.1
  6165.180   39427.3119    0.1
  6165.198   39182.9226    0.1
  6165.215   38947.9090    0.1
  6165.232   38083.4674    0.1
  6165.250   37506.4397    0.1
  6165.267   37257.2029    0.1
  6165.285   36828.0607    0.1
  6165.302   36769.1010    0.1
  6165.319   36731.4257    0.1
  6165.337   36579.9563    0.1
  6165.354   36289.5716    0.1
  6165.372   36065.3685    0.1
  6165.389   35952.3828    0.1
  6165.406   35827.2285    0.1
  6165.424   35904.5437    0.1
  6165.441   36145.2514    0.1
  6165.459   36644.0150    0.1
  6165.476   37229.2340    0.1
  6165.493   37755.9544    0.1
  6165.511   38278.7127    0.1
  6165.528   38604.4647    0.1
  6165.546   38950.0585    0.1
  6165.563   39432.4228    0.1
  6165.580   39788.4730    0.1
  6165.598   40045.1365    0.1
  6165.615   40261.9134    0.1
  6165.633   40195.8772    0.1
  6165.650   39951.0387    0.1
  6165.667   39373.0608    0.1
  6165.685   38489.4036    0.1
  6165.702   37739.9216    0.1
  6165.720   36835.0115    0.1
  6165.737   35803.2481    0.1
  6165.755   35088.5563    0.1
  6165.772   34479.0343    0.1
  6165.789   34339.5199    0.1
  6165.807   34378.4534    0.1
  6165.824   34580.0296    0.1
  6165.842   35199.3946    0.1
  6165.859   35679.9543    0.1
  6165.876   36135.4942    0.1
  6165.894   36674.2845    0.1
  6165.911   37204.6887    0.1
  6165.929   37611.7785    0.1
  6165.946   38167.8675    0.1
  6165.963   38486.5717    0.1
  6165.981   38678.3611    0.1
  6165.998   38876.6880    0.1
  6166.016   39013.7995    0.1
  6166.033   39087.7649    0.1
  6166.050   39133.0697    0.1
  6166.068   39322.1070    0.1
  6166.085   39376.7102    0.1
  6166.103   39394.4912    0.1
  6166.120   39324.3675    0.1
  6166.137   39021.6260    0.1
  6166.155   38492.7722    0.1
  6166.172   37635.4936    0.1
  6166.190   36947.3010    0.1
  6166.207   36329.4037    0.1
  6166.224   35753.8967    0.1
  6166.242   35361.7195    0.1
  6166.259   35109.5054    0.1
  6166.277   35064.1525    0.1
  6166.294   35374.0202    0.1
  6166.311   35659.9720    0.1
  6166.329   35878.1931    0.1
  6166.346   35745.3731    0.1
  6166.364   35219.7765    0.1
  6166.381   34256.4200    0.1
  6166.398   32048.4235    0.1
  6166.416   29974.1854    0.1
  6166.433   27907.6024    0.1
  6166.451   25295.5602    0.1
  6166.468   24008.5502    0.1
  6166.485   23269.5581    0.1
  6166.503   23567.1856    0.1
  6166.520   24740.8791    0.1
  6166.538   26237.7388    0.1
  6166.555   28855.3509    0.1
  6166.573   31106.4168    0.1
  6166.590   33081.4339    0.1
  6166.607   35236.8051    0.1
  6166.625   36749.6982    0.1
  6166.642   37520.4938    0.1
  6166.660   38098.3213    0.1
  6166.677   37892.4487    0.1
  6166.694   37501.5049    0.1
  6166.712   37051.1370    0.1
  6166.729   36394.0941    0.1
  6166.747   36119.0558    0.1
  6166.764   36059.2954    0.1
  6166.781   36484.2035    0.1
  6166.799   37075.2961    0.1
  6166.816   37670.9170    0.1
  6166.834   38498.2664    0.1
  6166.851   39157.3790    0.1
  6166.868   39565.7783    0.1
  6166.886   39905.4976    0.1
  6166.903   39652.8599    0.1
  6166.921   39285.1639    0.1
  6166.938   38738.9051    0.1
  6166.955   37653.5441    0.1
  6166.973   36796.6187    0.1
  6166.990   36045.9107    0.1
  6167.008   34913.1642    0.1
  6167.025   34106.6625    0.1
  6167.042   33563.5065    0.1
  6167.060   33163.8340    0.1
  6167.077   33111.6994    0.1
  6167.095   33215.6363    0.1
  6167.112   33746.0502    0.1
  6167.129   34304.0169    0.1
  6167.147   34699.7774    0.1
  6167.164   35192.4292    0.1
  6167.182   35486.5629    0.1
  6167.199   35610.7220    0.1
  6167.216   35615.5483    0.1
  6167.234   35395.8031    0.1
  6167.251   35241.0340    0.1
  6167.269   35044.3646    0.1
  6167.286   35094.2486    0.1
  6167.303   35372.7116    0.1
  6167.321   35771.5600    0.1
  6167.338   36357.5065    0.1
  6167.356   36694.8035    0.1
  6167.373   36778.1061    0.1
  6167.391   36085.0443    0.1
  6167.408   34870.8709    0.1
  6167.425   33540.8936    0.1
  6167.443   31032.9144    0.1
  6167.460   27551.1769    0.1
  6167.478   24703.5073    0.1
  6167.495   21682.9985    0.1
  6167.512   17918.2115    0.1
  6167.530   15805.2905    0.1
  6167.547   14393.2155    0.1
  6167.565   13914.4205    0.1
  6167.582   14668.6772    0.1
  6167.599   15914.5132    0.1
  6167.617   18703.6469    0.1
  6167.634   21817.1938    0.1
  6167.652   24031.0448    0.1
  6167.669   27974.9245    0.1
  6167.686   30697.4821    0.1
  6167.704   32617.2563    0.1
  6167.721   34415.9252    0.1
  6167.739   35283.1096    0.1
  6167.756   35530.8875    0.1
  6167.773   35538.1712    0.1
  6167.791   34934.9779    0.1
  6167.808   34411.4449    0.1
  6167.826   33889.5989    0.1
  6167.843   33292.4319    0.1
  6167.860   33320.5798    0.1
  6167.878   33633.7795    0.1
  6167.895   34359.7652    0.1
  6167.913   35526.0359    0.1
  6167.930   36474.7015    0.1
  6167.947   37564.6829    0.1
  6167.965   38858.1158    0.1
  6167.982   39636.1566    0.1
  6168.000   40293.2230    0.1
  6168.017   40854.5407    0.1
  6168.034   41256.5420    0.1
  6168.052   41446.2563    0.1
  6168.069   41171.8985    0.1
  6168.087   40965.6368    0.1
  6168.104   40733.4155    0.1
  6168.121   40214.3747    0.1
  6168.139   40080.4452    0.1
  6168.156   39871.1924    0.1
  6168.174   39571.4901    0.1
  6168.191   39388.1931    0.1
  6168.208   39148.3917    0.1
  6168.226   39014.6290    0.1
  6168.243   39013.1873    0.1
  6168.261   39294.8243    0.1
  6168.278   39557.0824    0.1
  6168.296   40083.3792    0.1
  6168.313   40087.9520    0.1
  6168.330   40093.7673    0.1
  6168.348   39682.0465    0.1
  6168.365   39108.7898    0.1
  6168.383   38554.4645    0.1
  6168.400   37920.5155    0.1
  6168.417   37330.0905    0.1
  6168.435   37168.7260    0.1
  6168.452   37270.8577    0.1
  6168.470   37744.8792    0.1
  6168.487   38173.3537    0.1
  6168.504   38659.2428    0.1
  6168.522   39057.6643    0.1
  6168.539   39276.6162    0.1
  6168.557   39246.0705    0.1
  6168.574   39110.9048    0.1
  6168.591   39113.1272    0.1
  6168.609   39153.0908    0.1
  6168.626   39462.7173    0.1
  6168.644   39731.0100    0.1
  6168.661   40027.5045    0.1
  6168.678   40392.8904    0.1
  6168.696   40803.6905    0.1
  6168.713   40939.6031    0.1
  6168.731   40950.1475    0.1
  6168.748   40703.7632    0.1
  6168.765   40281.7567    0.1
  6168.783   39621.0556    0.1
  6168.800   38551.5943    0.1
  6168.818   37281.6630    0.1
  6168.835   36299.6176    0.1
  6168.852   35506.4066    0.1
  6168.870   35146.3408    0.1
  6168.887   35067.4046    0.1
  6168.905   35247.3659    0.1
  6168.922   35624.8912    0.1
  6168.939   35678.0138    0.1
  6168.957   35520.3428    0.1
  6168.974   35105.7422    0.1
  6168.992   34586.7280    0.1
  6169.009   34743.9582    0.1
  6169.026   34681.0940    0.1
  6169.044   35264.5396    0.1
  6169.061   36042.9728    0.1
  6169.079   37240.1180    0.1
  6169.096   38834.2936    0.1
  6169.114   39890.4266    0.1
  6169.131   40709.0266    0.1
  6169.148   41573.7615    0.1
  6169.166   41828.7259    0.1
  6169.183   41904.5295    0.1
  6169.201   42012.4512    0.1
  6169.218   41864.4001    0.1
  6169.235   41611.2056    0.1
  6169.253   41039.3763    0.1
  6169.270   40791.1034    0.1
  6169.288   40624.8377    0.1
  6169.305   40481.8785    0.1
  6169.322   40347.5571    0.1
  6169.340   40368.4834    0.1
  6169.357   40382.1647    0.1
  6169.375   39878.1813    0.1
  6169.392   39466.5943    0.1
  6169.409   39007.3785    0.1
  6169.427   38209.8534    0.1
  6169.444   37534.7802    0.1
  6169.462   37042.3841    0.1
  6169.479   36697.7576    0.1
  6169.496   36233.4309    0.1
  6169.514   36173.2290    0.1
  6169.531   36162.8600    0.1
  6169.549   36171.9045    0.1
  6169.566   36097.6792    0.1
  6169.583   35997.0216    0.1
  6169.601   35855.1551    0.1
  6169.618   35698.4306    0.1
  6169.636   35711.0079    0.1
  6169.653   35655.1952    0.1
  6169.670   36143.2643    0.1
  6169.688   36788.1749    0.1
  6169.705   37500.1496    0.1
  6169.723   38631.7933    0.1
  6169.740   39463.9177    0.1
  6169.757   40182.4730    0.1
  6169.775   41052.2547    0.1
  6169.792   41586.7856    0.1
  6169.810   41758.1887    0.1
  6169.827   41531.4356    0.1
  6169.844   41231.2136    0.1
  6169.862   40962.0476    0.1
  6169.879   40836.9847    0.1
  6169.897   40165.1606    0.1
  6169.914   39809.4533    0.1
  6169.931   39436.8654    0.1
  6169.949   38742.7896    0.1
  6169.966   37990.3735    0.1
