#  wavelength    Flux         Std.Dev.
#  [Angstroem]   [F(5500)]    [N/A]

  6270.022   13858.2454    0.1
  6270.040   16042.9214    0.1
  6270.057   18901.2472    0.1
  6270.074   21351.6342    0.1
  6270.092   24810.7972    0.1
  6270.109   27351.9083    0.1
  6270.127   29675.4670    0.1
  6270.144   31855.0992    0.1
  6270.161   33540.0380    0.1
  6270.179   34516.0569    0.1
  6270.196   34946.9195    0.1
  6270.214   34956.2476    0.1
  6270.231   34919.4989    0.1
  6270.248   34801.6025    0.1
  6270.266   34733.3943    0.1
  6270.283   34960.4814    0.1
  6270.301   35272.9105    0.1
  6270.318   36152.6982    0.1
  6270.336   36870.1030    0.1
  6270.353   37578.8427    0.1
  6270.370   38158.7110    0.1
  6270.388   38362.9172    0.1
  6270.405   38263.7453    0.1
  6270.423   37955.3140    0.1
  6270.440   37331.4057    0.1
  6270.457   36449.4024    0.1
  6270.475   35692.1314    0.1
  6270.492   34676.0124    0.1
  6270.510   33949.8227    0.1
  6270.527   33422.5359    0.1
  6270.544   32916.2350    0.1
  6270.562   32607.6443    0.1
  6270.579   32469.4477    0.1
  6270.597   32630.9280    0.1
  6270.614   32846.0636    0.1
  6270.631   33243.0846    0.1
  6270.649   33646.8427    0.1
  6270.666   34153.3748    0.1
  6270.684   34797.8464    0.1
  6270.701   35189.4175    0.1
  6270.718   35533.6727    0.1
  6270.736   35822.2259    0.1
  6270.753   36037.2607    0.1
  6270.771   36385.1087    0.1
  6270.788   36653.0421    0.1
  6270.805   36947.2258    0.1
  6270.823   37383.0631    0.1
  6270.840   37626.5916    0.1
  6270.858   37866.6771    0.1
  6270.875   37918.0248    0.1
  6270.892   37905.0037    0.1
  6270.910   37899.3303    0.1
  6270.927   37909.7640    0.1
  6270.945   37864.8389    0.1
  6270.962   37934.2028    0.1
  6270.979   37982.8301    0.1
  6270.997   37983.4475    0.1
  6271.014   37936.7081    0.1
  6271.032   37679.6313    0.1
  6271.049   37633.0487    0.1
  6271.066   37542.4097    0.1
  6271.084   37391.8178    0.1
  6271.101   37326.2257    0.1
  6271.119   37310.6243    0.1
  6271.136   37230.5876    0.1
  6271.153   37117.0373    0.1
  6271.171   36951.7049    0.1
  6271.188   36566.9014    0.1
  6271.206   36192.9649    0.1
  6271.223   35240.5511    0.1
  6271.241   33910.2240    0.1
  6271.258   32205.7595    0.1
  6271.275   29368.9769    0.1
  6271.293   26948.7925    0.1
  6271.310   24009.7247    0.1
  6271.328   21329.2010    0.1
  6271.345   19383.8124    0.1
  6271.362   17882.9003    0.1
  6271.380   17699.2092    0.1
  6271.397   18328.1461    0.1
  6271.415   19876.1254    0.1
  6271.432   21595.1981    0.1
  6271.449   24412.4515    0.1
  6271.467   26879.6109    0.1
  6271.484   28891.5486    0.1
  6271.502   31276.1147    0.1
  6271.519   32609.2803    0.1
  6271.536   34551.7681    0.1
  6271.554   35934.4704    0.1
  6271.571   37088.0832    0.1
  6271.589   38025.2741    0.1
  6271.606   38645.4510    0.1
  6271.623   39272.0289    0.1
  6271.641   39429.7814    0.1
  6271.658   39314.3626    0.1
  6271.676   39185.4517    0.1
  6271.693   38970.0513    0.1
  6271.710   38746.2926    0.1
  6271.728   38582.1028    0.1
  6271.745   38512.9499    0.1
  6271.763   38368.8607    0.1
  6271.780   37988.5625    0.1
  6271.797   37588.6698    0.1
  6271.815   37114.2717    0.1
  6271.832   36724.1320    0.1
  6271.850   36406.0601    0.1
  6271.867   36355.6800    0.1
  6271.884   36627.2299    0.1
  6271.902   37011.4187    0.1
  6271.919   37541.6517    0.1
  6271.937   37992.0409    0.1
  6271.954   38405.2268    0.1
  6271.971   38619.5278    0.1
  6271.989   38788.2224    0.1
  6272.006   39038.3078    0.1
  6272.024   39182.2842    0.1
  6272.041   39278.3186    0.1
  6272.059   39375.5977    0.1
  6272.076   39286.3066    0.1
  6272.093   39190.0921    0.1
  6272.111   38753.7829    0.1
  6272.128   38159.0257    0.1
  6272.146   37331.6483    0.1
  6272.163   36693.4859    0.1
  6272.180   36060.0385    0.1
  6272.198   35690.7007    0.1
  6272.215   35514.7272    0.1
  6272.233   35334.0367    0.1
  6272.250   35138.4669    0.1
  6272.267   34844.9324    0.1
  6272.285   34172.7217    0.1
  6272.302   33216.1541    0.1
  6272.320   31613.4963    0.1
  6272.337   29932.5889    0.1
  6272.354   28370.7671    0.1
  6272.372   26295.1845    0.1
  6272.389   24900.4008    0.1
  6272.407   23782.0448    0.1
  6272.424   23633.0447    0.1
  6272.441   23993.1472    0.1
  6272.459   25458.5565    0.1
  6272.476   27099.3901    0.1
  6272.494   28826.7361    0.1
  6272.511   30675.1628    0.1
  6272.528   32179.6336    0.1
  6272.546   33304.5211    0.1
  6272.563   33967.4713    0.1
  6272.581   34109.5619    0.1
  6272.598   34358.6686    0.1
  6272.615   34609.6258    0.1
  6272.633   34855.4391    0.1
  6272.650   35278.2517    0.1
  6272.668   35551.1294    0.1
  6272.685   35918.7498    0.1
  6272.702   36126.9863    0.1
  6272.720   36168.5626    0.1
  6272.737   36003.7922    0.1
  6272.755   35657.6257    0.1
  6272.772   35136.9747    0.1
  6272.789   34258.0979    0.1
  6272.807   33544.9964    0.1
  6272.824   32722.6430    0.1
  6272.842   32087.0156    0.1
  6272.859   31614.1233    0.1
  6272.876   31387.2117    0.1
  6272.894   31466.1660    0.1
  6272.911   31628.2811    0.1
  6272.929   32246.3220    0.1
  6272.946   32788.7096    0.1
  6272.964   33486.7114    0.1
  6272.981   33841.1011    0.1
  6272.998   34274.2136    0.1
  6273.016   34640.5356    0.1
  6273.033   35012.4875    0.1
  6273.051   35223.3358    0.1
  6273.068   35715.5455    0.1
  6273.085   36037.0141    0.1
  6273.103   36377.3053    0.1
  6273.120   36421.5002    0.1
  6273.138   36481.0579    0.1
  6273.155   36471.9602    0.1
  6273.172   36476.4514    0.1
  6273.190   36761.8883    0.1
  6273.207   37143.4090    0.1
  6273.225   37567.8443    0.1
  6273.242   38320.1648    0.1
  6273.259   38954.9301    0.1
  6273.277   39453.2647    0.1
  6273.294   39847.5409    0.1
  6273.312   39962.3436    0.1
  6273.329   39687.0147    0.1
  6273.346   39118.0742    0.1
  6273.364   38553.1163    0.1
  6273.381   37432.3920    0.1
  6273.399   36641.2961    0.1
  6273.416   36045.3207    0.1
  6273.433   35700.8824    0.1
  6273.451   35623.3263    0.1
  6273.468   35845.3382    0.1
  6273.486   36287.4194    0.1
  6273.503   36566.7592    0.1
  6273.520   37139.8765    0.1
  6273.538   37575.1215    0.1
  6273.555   37893.5905    0.1
  6273.573   38212.5206    0.1
  6273.590   38055.4962    0.1
  6273.607   37864.8153    0.1
  6273.625   37532.5490    0.1
  6273.642   37218.5774    0.1
  6273.660   36875.1330    0.1
  6273.677   36410.6586    0.1
  6273.694   35948.3750    0.1
  6273.712   35428.2768    0.1
  6273.729   35103.0702    0.1
  6273.747   34992.3132    0.1
  6273.764   35118.4716    0.1
  6273.782   35203.0068    0.1
  6273.799   35640.9824    0.1
  6273.816   36035.8070    0.1
  6273.834   36382.7051    0.1
  6273.851   36431.1158    0.1
  6273.869   36350.0290    0.1
  6273.886   36197.1043    0.1
  6273.903   35964.6805    0.1
  6273.921   35787.7456    0.1
  6273.938   35801.5210    0.1
  6273.956   36243.9284    0.1
  6273.973   36673.2901    0.1
  6273.990   37036.2123    0.1
  6274.008   37280.1887    0.1
  6274.025   37482.2067    0.1
  6274.043   37599.0955    0.1
  6274.060   37727.1689    0.1
  6274.077   37391.1681    0.1
  6274.095   37160.7191    0.1
  6274.112   36924.7888    0.1
  6274.130   36558.7866    0.1
  6274.147   36254.4221    0.1
  6274.164   35793.5288    0.1
  6274.182   35539.9273    0.1
  6274.199   35410.1398    0.1
  6274.217   35416.2036    0.1
  6274.234   35702.3843    0.1
  6274.251   36104.4550    0.1
  6274.269   36655.0659    0.1
  6274.286   37073.2695    0.1
  6274.304   37499.4281    0.1
  6274.321   37657.9256    0.1
  6274.338   37660.3943    0.1
  6274.356   37106.4993    0.1
  6274.373   36454.7715    0.1
  6274.391   35412.0624    0.1
  6274.408   33652.3048    0.1
  6274.425   32142.9137    0.1
  6274.443   28249.9488    0.1
  6274.460   25635.1471    0.1
  6274.478   22334.9089    0.1
  6274.495   19063.4553    0.1
  6274.512   17141.1787    0.1
  6274.530   15690.8566    0.1
  6274.547   15986.4505    0.1
  6274.565   16988.8555    0.1
  6274.582   20151.8821    0.1
  6274.599   22695.3253    0.1
  6274.617   25951.0269    0.1
  6274.634   29401.9907    0.1
  6274.652   31826.1349    0.1
  6274.669   34288.8716    0.1
  6274.687   35682.3357    0.1
  6274.704   36579.0715    0.1
  6274.721   37306.4765    0.1
  6274.739   37629.3945    0.1
  6274.756   37785.8901    0.1
  6274.774   37800.1595    0.1
  6274.791   37807.0511    0.1
  6274.808   37798.7882    0.1
  6274.826   38010.3065    0.1
  6274.843   38179.1062    0.1
  6274.861   38351.3888    0.1
  6274.878   38348.9958    0.1
  6274.895   38300.8046    0.1
  6274.913   37946.2066    0.1
  6274.930   37451.4623    0.1
  6274.948   36596.8562    0.1
  6274.965   35700.6904    0.1
  6274.982   35015.0947    0.1
  6275.000   34059.4177    0.1
  6275.017   33581.8297    0.1
  6275.035   33344.1880    0.1
  6275.052   32921.8885    0.1
  6275.069   32858.6661    0.1
  6275.087   33094.8724    0.1
  6275.104   33755.6216    0.1
  6275.122   34264.2349    0.1
  6275.139   34980.9300    0.1
  6275.156   35646.1784    0.1
  6275.174   36160.9900    0.1
  6275.191   36902.8144    0.1
  6275.209   37117.8473    0.1
  6275.226   37579.8484    0.1
  6275.243   37991.7860    0.1
  6275.261   38275.6382    0.1
  6275.278   38669.8404    0.1
  6275.296   38887.9762    0.1
  6275.313   38905.7277    0.1
  6275.330   38614.1578    0.1
  6275.348   38401.8660    0.1
  6275.365   38228.6978    0.1
  6275.383   37798.7739    0.1
  6275.400   37498.0414    0.1
  6275.417   37034.9130    0.1
  6275.435   36478.7264    0.1
  6275.452   36002.3128    0.1
  6275.470   35665.8370    0.1
  6275.487   35433.5742    0.1
  6275.505   35952.2254    0.1
  6275.522   36656.0874    0.1
  6275.539   36940.3335    0.1
  6275.557   37981.7911    0.1
  6275.574   38229.9510    0.1
  6275.592   38204.6319    0.1
  6275.609   37443.5309    0.1
  6275.626   35822.8968    0.1
  6275.644   33989.9604    0.1
  6275.661   30763.0120    0.1
  6275.679   27630.1194    0.1
  6275.696   23522.2888    0.1
  6275.713   18901.9522    0.1
  6275.731   16270.9049    0.1
  6275.748   13275.6619    0.1
  6275.766   11610.7063    0.1
  6275.783   10632.0845    0.1
  6275.800   10209.7209    0.1
  6275.818   10547.6648    0.1
  6275.835   11550.4704    0.1
  6275.853   13789.8262    0.1
  6275.870   15790.9907    0.1
  6275.887   18955.0195    0.1
  6275.905   22213.9414    0.1
  6275.922   24679.5392    0.1
  6275.940   28697.7038    0.1
  6275.957   30750.6993    0.1
  6275.974   32708.8619    0.1
  6275.992   33941.9329    0.1
  6276.009   34659.3787    0.1
  6276.027   35133.0781    0.1
  6276.044   35457.2814    0.1
  6276.061   35370.5275    0.1
  6276.079   35937.8352    0.1
  6276.096   36179.0137    0.1
  6276.114   36341.1768    0.1
  6276.131   37009.9416    0.1
  6276.148   37444.6438    0.1
  6276.166   37811.0877    0.1
  6276.183   38434.8287    0.1
  6276.201   38894.7034    0.1
  6276.218   39296.6101    0.1
  6276.235   39595.5711    0.1
  6276.253   39817.3747    0.1
  6276.270   39883.7184    0.1
  6276.288   39763.2088    0.1
  6276.305   39466.1903    0.1
  6276.323   39075.8390    0.1
  6276.340   38761.4569    0.1
  6276.357   38263.8931    0.1
  6276.375   37793.9212    0.1
  6276.392   37399.5828    0.1
  6276.410   37021.1414    0.1
  6276.427   36760.4646    0.1
  6276.444   36471.9676    0.1
  6276.462   36232.9922    0.1
  6276.479   36105.2245    0.1
  6276.497   35992.6219    0.1
  6276.514   36074.3374    0.1
  6276.531   36212.6208    0.1
  6276.549   36526.0744    0.1
  6276.566   36679.7677    0.1
  6276.584   36606.3361    0.1
  6276.601   36567.8142    0.1
  6276.618   36348.0549    0.1
  6276.636   35953.5855    0.1
  6276.653   35571.6962    0.1
  6276.671   35225.9782    0.1
  6276.688   34863.0968    0.1
  6276.705   34660.3135    0.1
  6276.723   34533.2478    0.1
  6276.740   34501.8460    0.1
  6276.758   34442.3395    0.1
  6276.775   34364.6274    0.1
  6276.792   34091.3879    0.1
  6276.810   33876.7719    0.1
  6276.827   33290.2486    0.1
  6276.845   33147.6943    0.1
  6276.862   32988.8712    0.1
  6276.879   32972.3961    0.1
  6276.897   33023.9098    0.1
  6276.914   33067.8931    0.1
  6276.932   33528.7880    0.1
  6276.949   33820.3639    0.1
  6276.966   34007.3355    0.1
  6276.984   33908.1631    0.1
  6277.001   33749.7323    0.1
  6277.019   33504.4029    0.1
  6277.036   33289.1480    0.1
  6277.053   32867.5569    0.1
  6277.071   31471.7477    0.1
  6277.088   30183.0467    0.1
  6277.106   28699.7264    0.1
  6277.123   27829.7552    0.1
  6277.140   27832.4080    0.1
  6277.158   29263.2906    0.1
  6277.175   31311.1503    0.1
  6277.193   33140.1499    0.1
  6277.210   35215.6577    0.1
  6277.228   35985.7453    0.1
  6277.245   35947.9446    0.1
  6277.262   35211.2366    0.1
  6277.280   34023.7967    0.1
  6277.297   31275.1787    0.1
  6277.315   27900.0271    0.1
  6277.332   25214.9669    0.1
  6277.349   22301.1049    0.1
  6277.367   20800.0929    0.1
  6277.384   19965.0052    0.1
  6277.402   19018.7218    0.1
  6277.419   18398.1710    0.1
  6277.436   17706.6069    0.1
  6277.454   17621.5815    0.1
  6277.471   18177.3180    0.1
  6277.489   19961.2125    0.1
  6277.506   22387.3873    0.1
  6277.523   24878.3684    0.1
  6277.541   28238.2571    0.1
  6277.558   30860.2016    0.1
  6277.576   32945.1745    0.1
  6277.593   34739.4346    0.1
  6277.610   35760.0018    0.1
  6277.628   36669.2532    0.1
  6277.645   37077.1912    0.1
  6277.663   37290.4549    0.1
  6277.680   37467.0922    0.1
  6277.697   37274.2227    0.1
  6277.715   36889.9263    0.1
  6277.732   36271.2271    0.1
  6277.750   35696.0815    0.1
  6277.767   34419.1755    0.1
  6277.784   32217.4284    0.1
  6277.802   30437.8062    0.1
  6277.819   27950.6422    0.1
  6277.837   26936.1275    0.1
  6277.854   26677.7414    0.1
  6277.871   28901.1142    0.1
  6277.889   30324.7693    0.1
  6277.906   31050.4416    0.1
  6277.924   30277.2460    0.1
  6277.941   29657.5559    0.1
  6277.958   29222.0666    0.1
  6277.976   29753.7481    0.1
  6277.993   30715.2037    0.1
  6278.011   31870.6544    0.1
  6278.028   33110.9411    0.1
  6278.046   34211.4134    0.1
  6278.063   35255.2762    0.1
  6278.080   35658.8834    0.1
  6278.098   35771.7573    0.1
  6278.115   34717.1039    0.1
  6278.133   33655.1850    0.1
  6278.150   32187.7138    0.1
  6278.167   31929.5449    0.1
  6278.185   32091.0796    0.1
  6278.202   34021.5467    0.1
  6278.220   34903.2128    0.1
  6278.237   35229.6669    0.1
  6278.254   34315.8836    0.1
  6278.272   33278.4299    0.1
  6278.289   32234.4932    0.1
  6278.307   31471.7469    0.1
  6278.324   31284.4598    0.1
  6278.341   31610.2422    0.1
  6278.359   32009.0765    0.1
  6278.376   32132.1556    0.1
  6278.394   31457.4680    0.1
  6278.411   30677.2119    0.1
  6278.428   29824.5588    0.1
  6278.446   28286.5293    0.1
  6278.463   27307.8951    0.1
  6278.481   26708.9322    0.1
  6278.498   26564.3188    0.1
  6278.515   26538.5625    0.1
  6278.533   26188.6183    0.1
  6278.550   24871.3540    0.1
  6278.568   23517.2405    0.1
  6278.585   20676.1983    0.1
  6278.602   19135.8941    0.1
  6278.620   18355.2928    0.1
  6278.637   19519.6608    0.1
  6278.655   21199.2487    0.1
  6278.672   23768.4722    0.1
  6278.689   27129.6258    0.1
  6278.707   29468.8484    0.1
  6278.724   31925.8021    0.1
  6278.742   32799.1452    0.1
  6278.759   33074.6138    0.1
  6278.776   33209.1853    0.1
  6278.794   33258.5282    0.1
  6278.811   33332.5441    0.1
  6278.829   33635.4216    0.1
  6278.846   33904.2339    0.1
  6278.863   34124.1650    0.1
  6278.881   34573.7177    0.1
  6278.898   34986.1710    0.1
  6278.916   35952.8737    0.1
  6278.933   36712.7554    0.1
  6278.951   37532.2425    0.1
  6278.968   38307.6902    0.1
  6278.985   38558.7977    0.1
  6279.003   38692.8265    0.1
  6279.020   38970.8179    0.1
  6279.038   39165.2492    0.1
  6279.055   39432.3618    0.1
  6279.072   39760.2259    0.1
  6279.090   40023.2352    0.1
  6279.107   40449.3521    0.1
  6279.125   40639.3448    0.1
  6279.142   40807.4605    0.1
  6279.159   41286.1030    0.1
  6279.177   41267.1553    0.1
  6279.194   41002.0388    0.1
  6279.212   40556.0223    0.1
  6279.229   40194.2577    0.1
  6279.246   39387.3721    0.1
  6279.264   38097.0624    0.1
  6279.281   36973.9381    0.1
  6279.299   35034.3827    0.1
  6279.316   33100.0528    0.1
  6279.333   31303.4265    0.1
  6279.351   28154.3979    0.1
  6279.368   26184.7806    0.1
  6279.386   24144.6327    0.1
  6279.403   24034.6452    0.1
  6279.420   25184.3624    0.1
  6279.438   28412.1756    0.1
  6279.455   31121.7382    0.1
  6279.473   33577.4243    0.1
  6279.490   35735.9831    0.1
  6279.507   36646.3032    0.1
  6279.525   37055.0289    0.1
  6279.542   36406.1369    0.1
  6279.560   35275.1189    0.1
  6279.577   33275.5701    0.1
  6279.594   30375.2283    0.1
  6279.612   28406.4402    0.1
  6279.629   27245.8107    0.1
  6279.647   28653.2894    0.1
  6279.664   30498.4662    0.1
  6279.681   33819.2600    0.1
  6279.699   35451.4759    0.1
  6279.716   36298.2770    0.1
  6279.734   36730.0381    0.1
  6279.751   36920.2710    0.1
  6279.769   37047.9217    0.1
  6279.786   37457.1194    0.1
  6279.803   37793.5182    0.1
  6279.821   38251.1726    0.1
  6279.838   38464.5764    0.1
  6279.856   38493.5160    0.1
  6279.873   38291.3244    0.1
  6279.890   38142.9943    0.1
  6279.908   37999.8931    0.1
  6279.925   38020.6144    0.1
  6279.943   38111.1148    0.1
  6279.960   38267.2189    0.1
  6279.977   38416.2666    0.1
  6279.995   38528.1229    0.1
  6280.012   38529.2637    0.1
  6280.030   38620.2412    0.1
  6280.047   38771.1094    0.1
  6280.064   39293.9583    0.1
  6280.082   39514.0827    0.1
  6280.099   39490.5021    0.1
  6280.117   39559.6700    0.1
  6280.134   39654.9257    0.1
  6280.151   39703.3419    0.1
  6280.169   39874.1323    0.1
  6280.186   39962.8244    0.1
  6280.204   40004.4617    0.1
  6280.221   39789.1104    0.1
  6280.238   39522.8700    0.1
  6280.256   39037.6144    0.1
  6280.273   38538.9592    0.1
  6280.291   38019.8984    0.1
  6280.308   37438.2311    0.1
  6280.325   36804.5176    0.1
  6280.343   35983.4448    0.1
  6280.360   33654.1044    0.1
  6280.378   31467.4760    0.1
  6280.395   28784.5071    0.1
  6280.412   26145.4988    0.1
  6280.430   25854.4409    0.1
  6280.447   26715.6227    0.1
  6280.465   29176.4901    0.1
  6280.482   31216.5830    0.1
  6280.499   33551.1191    0.1
  6280.517   34797.9611    0.1
  6280.534   35602.0436    0.1
  6280.552   36628.8101    0.1
  6280.569   37373.4432    0.1
  6280.586   38089.5266    0.1
  6280.604   38798.9835    0.1
  6280.621   39224.6317    0.1
  6280.639   39742.3802    0.1
  6280.656   39932.3436    0.1
  6280.674   40149.7560    0.1
  6280.691   40678.4856    0.1
  6280.708   40580.0039    0.1
  6280.726   40472.6157    0.1
  6280.743   39724.2558    0.1
  6280.761   38622.2512    0.1
  6280.778   37107.0089    0.1
  6280.795   34096.6417    0.1
  6280.813   31558.3168    0.1
  6280.830   29167.9930    0.1
  6280.848   25255.4823    0.1
  6280.865   23080.5429    0.1
  6280.882   20007.7390    0.1
  6280.900   18401.6362    0.1
  6280.917   18400.1624    0.1
  6280.935   20676.8554    0.1
  6280.952   23340.5600    0.1
  6280.969   26158.7120    0.1
  6280.987   30139.4572    0.1
  6281.004   32113.6279    0.1
  6281.022   33159.9168    0.1
  6281.039   33779.9950    0.1
  6281.056   34049.9425    0.1
  6281.074   34201.0268    0.1
  6281.091   34380.9197    0.1
  6281.109   34581.8689    0.1
  6281.126   34971.8080    0.1
  6281.143   35480.4080    0.1
  6281.161   35900.3778    0.1
  6281.178   36505.1359    0.1
  6281.196   36742.4446    0.1
  6281.213   36903.6092    0.1
  6281.230   36872.5340    0.1
  6281.248   36729.6147    0.1
  6281.265   36783.8944    0.1
  6281.283   36701.2800    0.1
  6281.300   36700.8805    0.1
  6281.317   36874.3388    0.1
  6281.335   37060.4636    0.1
  6281.352   37222.0011    0.1
  6281.370   37494.5273    0.1
  6281.387   37607.4247    0.1
  6281.404   37648.6633    0.1
  6281.422   37721.2042    0.1
  6281.439   37797.6150    0.1
  6281.457   37802.9121    0.1
  6281.474   37619.9251    0.1
  6281.492   37367.2865    0.1
  6281.509   37106.2818    0.1
  6281.526   36788.6465    0.1
  6281.544   36458.4795    0.1
  6281.561   35916.4654    0.1
  6281.579   34610.3778    0.1
  6281.596   33296.8113    0.1
  6281.613   30286.8611    0.1
  6281.631   27356.1301    0.1
  6281.648   24376.1083    0.1
  6281.666   18484.1942    0.1
  6281.683   14481.1735    0.1
  6281.700   11102.3006    0.1
  6281.718   8006.9260    0.1
  6281.735   6761.2649    0.1
  6281.753   6240.4492    0.1
  6281.770   6402.6884    0.1
  6281.787   6946.5482    0.1
  6281.805   8005.3051    0.1
  6281.822   9871.1509    0.1
  6281.840   11545.0377    0.1
  6281.857   14506.3702    0.1
  6281.874   17103.9308    0.1
  6281.892   19217.6705    0.1
  6281.909   22673.4014    0.1
  6281.927   24942.1159    0.1
  6281.944   26938.2573    0.1
  6281.961   29516.2673    0.1
  6281.979   31126.1618    0.1
  6281.996   32806.3482    0.1
  6282.014   34477.3312    0.1
  6282.031   35746.3197    0.1
  6282.048   37156.7762    0.1
  6282.066   38176.2981    0.1
  6282.083   38747.8045    0.1
  6282.101   39533.4441    0.1
  6282.118   39754.8870    0.1
  6282.135   39772.8474    0.1
  6282.153   39495.4843    0.1
  6282.170   39410.9716    0.1
  6282.188   39291.4129    0.1
  6282.205   38807.0665    0.1
  6282.222   38486.9575    0.1
  6282.240   38083.6447    0.1
  6282.257   37617.0600    0.1
  6282.275   37268.7951    0.1
  6282.292   36777.5702    0.1
  6282.309   36597.0820    0.1
  6282.327   36460.3078    0.1
  6282.344   36165.9288    0.1
  6282.362   35793.5874    0.1
  6282.379   35356.8477    0.1
  6282.397   34193.8803    0.1
  6282.414   32847.5691    0.1
  6282.431   31170.1152    0.1
  6282.449   28240.7945    0.1
  6282.466   26866.3531    0.1
  6282.484   26417.8807    0.1
  6282.501   27822.4876    0.1
  6282.518   29734.8795    0.1
  6282.536   32649.6703    0.1
  6282.553   34365.7579    0.1
  6282.571   35283.6725    0.1
  6282.588   36097.2382    0.1
  6282.605   36689.3192    0.1
  6282.623   37107.6586    0.1
  6282.640   37594.3401    0.1
  6282.658   37906.1334    0.1
  6282.675   38218.0694    0.1
  6282.692   38738.3273    0.1
  6282.710   38952.6727    0.1
  6282.727   39114.9783    0.1
  6282.745   39250.8895    0.1
  6282.762   39501.9585    0.1
  6282.779   39420.7813    0.1
  6282.797   39403.3167    0.1
  6282.814   39289.2051    0.1
  6282.832   38922.7815    0.1
  6282.849   38347.8270    0.1
  6282.866   37861.0190    0.1
  6282.884   37209.7436    0.1
  6282.901   36929.1086    0.1
  6282.919   36780.9425    0.1
  6282.936   36651.2359    0.1
  6282.953   36907.0253    0.1
  6282.971   37226.0572    0.1
  6282.988   37666.8971    0.1
  6283.006   37914.2955    0.1
  6283.023   38282.5804    0.1
  6283.040   38549.6822    0.1
  6283.058   38763.3629    0.1
  6283.075   38702.1251    0.1
  6283.093   38276.7083    0.1
  6283.110   37733.8220    0.1
  6283.127   36770.7006    0.1
  6283.145   36082.8783    0.1
  6283.162   35606.2915    0.1
  6283.180   34557.8963    0.1
  6283.197   33477.8124    0.1
  6283.215   32412.7648    0.1
  6283.232   30697.1528    0.1
  6283.249   30496.9108    0.1
  6283.267   31087.3278    0.1
  6283.284   32903.2698    0.1
  6283.302   34371.8300    0.1
  6283.319   35282.1098    0.1
  6283.336   35118.0458    0.1
  6283.354   34702.5192    0.1
  6283.371   33962.6994    0.1
  6283.389   33292.0005    0.1
  6283.406   32792.0135    0.1
  6283.423   32182.2808    0.1
  6283.441   31837.8018    0.1
  6283.458   31604.9130    0.1
  6283.476   31369.0478    0.1
  6283.493   31324.4731    0.1
  6283.510   31251.8544    0.1
  6283.528   31120.7925    0.1
  6283.545   31031.8270    0.1
  6283.563   30979.6488    0.1
  6283.580   30784.0994    0.1
  6283.597   30611.1436    0.1
  6283.615   30258.7462    0.1
  6283.632   29297.3244    0.1
  6283.650   28128.5502    0.1
  6283.667   26296.5700    0.1
  6283.684   24477.6401    0.1
  6283.702   22542.6299    0.1
  6283.719   20090.3708    0.1
  6283.737   18514.1528    0.1
  6283.754   17519.7841    0.1
  6283.771   16669.1567    0.1
  6283.789   16486.1467    0.1
  6283.806   16582.7864    0.1
  6283.824   17598.0768    0.1
  6283.841   18571.2813    0.1
  6283.858   19786.6957    0.1
  6283.876   21873.3207    0.1
  6283.893   23701.3245    0.1
  6283.911   25441.5979    0.1
  6283.928   27231.9306    0.1
  6283.945   28737.5803    0.1
  6283.963   30137.0806    0.1
  6283.980   31520.2968    0.1
  6283.998   32449.6460    0.1
  6284.015   33692.6402    0.1
  6284.032   34472.4549    0.1
  6284.050   34952.5386    0.1
  6284.067   35773.4516    0.1
  6284.085   36188.2478    0.1
  6284.102   36469.7783    0.1
  6284.120   37285.2624    0.1
  6284.137   37881.3298    0.1
  6284.154   38473.6801    0.1
  6284.172   38945.7202    0.1
  6284.189   39549.2724    0.1
  6284.207   40019.6316    0.1
  6284.224   40167.8012    0.1
  6284.241   39991.2349    0.1
  6284.259   39298.9864    0.1
  6284.276   37690.8970    0.1
  6284.294   36252.3587    0.1
  6284.311   34356.5792    0.1
  6284.328   34110.5262    0.1
  6284.346   34412.5323    0.1
  6284.363   36160.8661    0.1
  6284.381   37173.6219    0.1
  6284.398   37761.1360    0.1
  6284.415   38200.4492    0.1
  6284.433   38403.7261    0.1
  6284.450   38595.8737    0.1
  6284.468   39238.1723    0.1
  6284.485   39568.6968    0.1
  6284.502   39782.5225    0.1
  6284.520   39898.2505    0.1
  6284.537   39932.8952    0.1
  6284.555   39816.4603    0.1
  6284.572   39606.7976    0.1
  6284.589   39447.6193    0.1
  6284.607   39405.2245    0.1
  6284.624   39454.0273    0.1
  6284.642   39589.8612    0.1
  6284.659   39866.3321    0.1
  6284.676   39992.3155    0.1
  6284.694   39821.8297    0.1
  6284.711   39770.4792    0.1
  6284.729   39995.7101    0.1
  6284.746   39981.8532    0.1
  6284.763   39701.2084    0.1
  6284.781   39517.7086    0.1
  6284.798   39353.3398    0.1
  6284.816   39681.2039    0.1
  6284.833   39766.9378    0.1
  6284.850   40022.2138    0.1
  6284.868   40677.9896    0.1
  6284.885   41080.4960    0.1
  6284.903   41428.8002    0.1
  6284.920   41793.3810    0.1
  6284.938   41879.1255    0.1
  6284.955   41543.3151    0.1
  6284.972   41239.7749    0.1
  6284.990   40804.8059    0.1
  6285.007   39747.5212    0.1
  6285.025   38483.7052    0.1
  6285.042   37449.4186    0.1
  6285.059   36324.3745    0.1
  6285.077   36349.1370    0.1
  6285.094   36717.7207    0.1
  6285.112   37609.6536    0.1
  6285.129   38003.1177    0.1
  6285.146   38221.0461    0.1
  6285.164   37989.4794    0.1
  6285.181   37741.4191    0.1
  6285.199   37367.0447    0.1
  6285.216   36650.4402    0.1
  6285.233   36267.4133    0.1
  6285.251   35950.0599    0.1
  6285.268   35724.9807    0.1
  6285.286   35669.1781    0.1
  6285.303   35763.3906    0.1
  6285.320   36226.3362    0.1
  6285.338   36788.1830    0.1
  6285.355   37801.3878    0.1
  6285.373   38414.2420    0.1
  6285.390   39175.6702    0.1
  6285.407   40301.7813    0.1
  6285.425   40870.6853    0.1
  6285.442   41354.9748    0.1
  6285.460   41841.3103    0.1
  6285.477   41960.8928    0.1
  6285.494   41860.8073    0.1
  6285.512   41350.4981    0.1
  6285.529   40840.2519    0.1
  6285.547   40137.8973    0.1
  6285.564   39088.2865    0.1
  6285.581   38431.0649    0.1
  6285.599   37720.4927    0.1
  6285.616   37140.3673    0.1
  6285.634   36808.6162    0.1
  6285.651   36532.7068    0.1
  6285.668   36798.7449    0.1
  6285.686   37383.6987    0.1
  6285.703   38172.4101    0.1
  6285.721   39216.5588    0.1
  6285.738   39964.3840    0.1
  6285.756   40710.3513    0.1
  6285.773   40931.9693    0.1
  6285.790   40859.2198    0.1
  6285.808   40365.7558    0.1
  6285.825   39756.6068    0.1
  6285.843   39182.3133    0.1
  6285.860   38528.5855    0.1
  6285.877   38188.5996    0.1
  6285.895   37919.0129    0.1
  6285.912   38035.5613    0.1
  6285.930   38042.6771    0.1
  6285.947   38055.6281    0.1
  6285.964   38145.1045    0.1
  6285.982   38167.4979    0.1
  6285.999   38124.3343    0.1
  6286.017   38108.6091    0.1
  6286.034   38045.8907    0.1
  6286.051   37804.6236    0.1
  6286.069   37500.8875    0.1
  6286.086   37030.2292    0.1
  6286.104   35902.6465    0.1
  6286.121   34910.3759    0.1
  6286.138   33420.2146    0.1
  6286.156   30734.7808    0.1
  6286.173   27820.1264    0.1
  6286.191   25374.0678    0.1
  6286.208   21160.4775    0.1
  6286.225   18065.4661    0.1
  6286.243   15716.8699    0.1
  6286.260   12808.5948    0.1
  6286.278   11498.9906    0.1
  6286.295   10769.2589    0.1
  6286.312   10529.0394    0.1
  6286.330   11033.8040    0.1
  6286.347   11914.1149    0.1
  6286.365   14368.0165    0.1
  6286.382   17103.8819    0.1
  6286.399   19427.1029    0.1
  6286.417   23254.5004    0.1
  6286.434   25943.0060    0.1
  6286.452   28694.5371    0.1
  6286.469   31116.6778    0.1
  6286.486   32789.6465    0.1
  6286.504   34203.1140    0.1
  6286.521   35542.2606    0.1
  6286.539   36385.9985    0.1
  6286.556   37450.4046    0.1
  6286.573   38137.0769    0.1
  6286.591   38688.6715    0.1
  6286.608   39469.2197    0.1
  6286.626   39848.4006    0.1
  6286.643   39979.5961    0.1
  6286.661   40031.5190    0.1
  6286.678   40225.2594    0.1
  6286.695   40413.2313    0.1
  6286.713   40584.5073    0.1
  6286.730   40611.1087    0.1
  6286.748   40595.4469    0.1
  6286.765   40478.9484    0.1
  6286.782   40482.8257    0.1
  6286.800   40557.6241    0.1
  6286.817   40602.0931    0.1
  6286.835   40463.1620    0.1
  6286.852   40228.7695    0.1
  6286.869   39733.4091    0.1
  6286.887   39182.4099    0.1
  6286.904   38339.5365    0.1
  6286.922   37410.6493    0.1
  6286.939   36641.6581    0.1
  6286.956   35900.9427    0.1
  6286.974   35348.0746    0.1
  6286.991   35100.9261    0.1
  6287.009   35064.0756    0.1
  6287.026   35567.8194    0.1
  6287.043   36043.5987    0.1
  6287.061   36681.4068    0.1
  6287.078   37415.8282    0.1
  6287.096   37949.1667    0.1
  6287.113   38563.1872    0.1
  6287.130   38662.0714    0.1
  6287.148   38568.9470    0.1
  6287.165   38109.6709    0.1
  6287.183   37460.6689    0.1
  6287.200   36847.8208    0.1
  6287.217   35733.1855    0.1
  6287.235   34788.4228    0.1
  6287.252   34050.7276    0.1
  6287.270   33358.9357    0.1
  6287.287   33228.2448    0.1
  6287.304   33409.8924    0.1
  6287.322   34188.9217    0.1
  6287.339   35162.6075    0.1
  6287.357   35952.1114    0.1
  6287.374   36910.3071    0.1
  6287.391   37379.3189    0.1
  6287.409   37716.6735    0.1
  6287.426   38158.3052    0.1
  6287.444   38452.9507    0.1
  6287.461   38792.9028    0.1
  6287.479   39366.6406    0.1
  6287.496   39752.8804    0.1
  6287.513   40252.1701    0.1
  6287.531   40679.3937    0.1
  6287.548   40839.1838    0.1
  6287.566   40624.6024    0.1
  6287.583   40170.5299    0.1
  6287.600   39801.0336    0.1
  6287.618   39251.8840    0.1
  6287.635   38748.7262    0.1
  6287.653   38440.4526    0.1
  6287.670   38300.5958    0.1
  6287.687   38620.9066    0.1
  6287.705   38895.1918    0.1
  6287.722   39406.8905    0.1
  6287.740   39833.2696    0.1
  6287.757   40142.0609    0.1
  6287.774   40510.0839    0.1
  6287.792   40244.7321    0.1
  6287.809   39912.9236    0.1
  6287.827   39371.7211    0.1
  6287.844   38729.6349    0.1
  6287.861   38174.0037    0.1
  6287.879   37311.9901    0.1
  6287.896   36732.7480    0.1
  6287.914   36428.7453    0.1
  6287.931   36282.2758    0.1
  6287.948   36220.5001    0.1
  6287.966   36280.4174    0.1
  6287.983   36472.9497    0.1
  6288.001   36602.2244    0.1
  6288.018   36884.9554    0.1
  6288.035   37296.5353    0.1
  6288.053   37803.9855    0.1
  6288.070   38428.4833    0.1
  6288.088   39241.4513    0.1
  6288.105   39811.8691    0.1
  6288.122   40252.5018    0.1
  6288.140   40646.7647    0.1
  6288.157   40744.9325    0.1
  6288.175   40503.5824    0.1
  6288.192   39941.0323    0.1
  6288.209   39082.1861    0.1
  6288.227   37694.4779    0.1
  6288.244   35942.5785    0.1
  6288.262   34816.5237    0.1
  6288.279   34261.8454    0.1
  6288.296   35153.4334    0.1
  6288.314   36236.1874    0.1
  6288.331   37501.0451    0.1
  6288.349   37959.9162    0.1
  6288.366   37983.4735    0.1
  6288.384   37684.6751    0.1
  6288.401   37337.2273    0.1
  6288.418   37122.4294    0.1
  6288.436   36851.4116    0.1
  6288.453   36680.1055    0.1
  6288.471   36784.2971    0.1
  6288.488   37203.5061    0.1
  6288.505   37494.1123    0.1
  6288.523   37699.2938    0.1
  6288.540   38045.5117    0.1
  6288.558   38198.3779    0.1
  6288.575   38309.9012    0.1
  6288.592   38426.7789    0.1
  6288.610   38452.1521    0.1
  6288.627   38420.8232    0.1
  6288.645   38279.5555    0.1
  6288.662   38137.4631    0.1
  6288.679   37939.3059    0.1
  6288.697   37741.7042    0.1
  6288.714   37661.6016    0.1
  6288.732   37606.8223    0.1
  6288.749   37425.8014    0.1
  6288.766   37198.8197    0.1
  6288.784   37004.8101    0.1
  6288.801   36671.9838    0.1
  6288.819   36545.9650    0.1
  6288.836   36504.5798    0.1
  6288.853   36818.4195    0.1
  6288.871   37187.5528    0.1
  6288.888   37718.5566    0.1
  6288.906   38531.4146    0.1
  6288.923   39269.9105    0.1
  6288.940   40028.8955    0.1
  6288.958   40949.9727    0.1
  6288.975   41711.6220    0.1
  6288.993   42269.5515    0.1
  6289.010   42624.1991    0.1
  6289.027   42813.2601    0.1
  6289.045   42912.3012    0.1
  6289.062   42529.7488    0.1
  6289.080   42191.3307    0.1
  6289.097   41647.8597    0.1
  6289.114   40857.1112    0.1
  6289.132   40316.7954    0.1
  6289.149   39690.9497    0.1
  6289.167   39087.2470    0.1
  6289.184   38705.1653    0.1
  6289.202   38425.7134    0.1
  6289.219   38350.2827    0.1
  6289.236   38353.8519    0.1
  6289.254   38384.8693    0.1
  6289.271   38411.0102    0.1
  6289.289   38490.4263    0.1
  6289.306   38744.9827    0.1
  6289.323   38876.6213    0.1
  6289.341   38952.5706    0.1
  6289.358   38827.3998    0.1
  6289.376   38887.4547    0.1
  6289.393   38687.0119    0.1
  6289.410   38074.7643    0.1
  6289.428   37767.4933    0.1
  6289.445   37616.8981    0.1
  6289.463   37464.1954    0.1
  6289.480   37652.2345    0.1
  6289.497   37994.4371    0.1
  6289.515   38437.1756    0.1
  6289.532   38875.2243    0.1
  6289.550   39235.2978    0.1
  6289.567   39745.9495    0.1
  6289.584   39822.6682    0.1
  6289.602   39865.8232    0.1
  6289.619   40068.7888    0.1
  6289.637   40156.9215    0.1
  6289.654   40193.8873    0.1
  6289.671   40240.4466    0.1
  6289.689   40159.7788    0.1
  6289.706   40103.4004    0.1
  6289.724   40174.1640    0.1
  6289.741   40190.3453    0.1
  6289.758   40175.3400    0.1
  6289.776   40092.5163    0.1
  6289.793   40111.1539    0.1
  6289.811   40139.5647    0.1
  6289.828   40047.2265    0.1
  6289.845   39501.6178    0.1
  6289.863   38678.7076    0.1
  6289.880   36492.9933    0.1
  6289.898   34916.8886    0.1
  6289.915   33372.2521    0.1
  6289.932   33225.3124    0.1
  6289.950   34144.1775    0.1
  6289.967   35686.8598    0.1
  6289.985   37471.5177    0.1
  6290.002   38318.2973    0.1
  6290.019   38946.7199    0.1
  6290.037   39494.4450    0.1
  6290.054   39828.0792    0.1
  6290.072   40171.2526    0.1
  6290.089   40538.3510    0.1
  6290.107   40783.5461    0.1
  6290.124   41009.0184    0.1
  6290.141   41417.0219    0.1
  6290.159   41860.6096    0.1
  6290.176   42272.5557    0.1
  6290.194   42871.0016    0.1
  6290.211   43193.0324    0.1
  6290.228   43568.6777    0.1
  6290.246   43556.5194    0.1
  6290.263   43539.0665    0.1
  6290.281   43395.8435    0.1
  6290.298   42971.2439    0.1
  6290.315   42567.3051    0.1
  6290.333   42183.8197    0.1
  6290.350   41756.3156    0.1
  6290.368   41496.8566    0.1
  6290.385   41239.1921    0.1
  6290.402   40843.8594    0.1
  6290.420   40660.4216    0.1
  6290.437   40526.5585    0.1
  6290.455   40616.1690    0.1
  6290.472   40547.5458    0.1
  6290.489   40330.6026    0.1
  6290.507   40044.2409    0.1
  6290.524   39652.5383    0.1
  6290.542   39158.8955    0.1
  6290.559   38297.8105    0.1
  6290.576   37800.3916    0.1
  6290.594   37442.9795    0.1
  6290.611   37076.1999    0.1
  6290.629   36922.3528    0.1
  6290.646   36681.9694    0.1
  6290.663   36231.8668    0.1
  6290.681   35604.5291    0.1
  6290.698   34440.1463    0.1
  6290.716   32700.2471    0.1
  6290.733   31609.7028    0.1
  6290.750   31436.8749    0.1
  6290.768   33401.4613    0.1
  6290.785   35672.6930    0.1
  6290.803   38779.8535    0.1
  6290.820   40618.8189    0.1
  6290.837   41362.9023    0.1
  6290.855   41682.5302    0.1
  6290.872   41528.7993    0.1
  6290.890   41265.2499    0.1
  6290.907   40873.2287    0.1
  6290.925   40584.8973    0.1
  6290.942   40241.9458    0.1
  6290.959   39713.4065    0.1
  6290.977   39403.9938    0.1
  6290.994   39164.0496    0.1
  6291.012   38918.6707    0.1
  6291.029   38723.3393    0.1
  6291.046   38633.6332    0.1
  6291.064   38604.8834    0.1
  6291.081   38734.0853    0.1
  6291.099   38889.3886    0.1
  6291.116   39122.4767    0.1
  6291.133   39780.5611    0.1
  6291.151   40296.2816    0.1
  6291.168   41020.4416    0.1
  6291.186   41972.5655    0.1
  6291.203   42644.7106    0.1
  6291.220   43349.8246    0.1
  6291.238   43621.5846    0.1
  6291.255   43711.6138    0.1
  6291.273   43592.8795    0.1
  6291.290   43006.0715    0.1
  6291.307   42493.2876    0.1
  6291.325   41698.7610    0.1
  6291.342   40920.8719    0.1
  6291.360   40352.4203    0.1
  6291.377   39905.0006    0.1
  6291.394   39374.5561    0.1
  6291.412   39096.2048    0.1
  6291.429   38946.3011    0.1
  6291.447   38710.3129    0.1
  6291.464   38480.4030    0.1
  6291.481   38298.8715    0.1
  6291.499   38112.1768    0.1
  6291.516   37980.6392    0.1
  6291.534   37903.6882    0.1
  6291.551   37647.2302    0.1
  6291.568   37283.2055    0.1
  6291.586   36691.4641    0.1
  6291.603   35473.6126    0.1
  6291.621   34225.1227    0.1
  6291.638   32674.9445    0.1
  6291.655   30899.8335    0.1
  6291.673   29981.1055    0.1
  6291.690   29425.5860    0.1
  6291.708   29962.7926    0.1
  6291.725   30742.5241    0.1
  6291.742   32136.2126    0.1
  6291.760   33524.9091    0.1
  6291.777   34777.2730    0.1
  6291.795   36105.9811    0.1
  6291.812   37240.2445    0.1
  6291.830   38269.2763    0.1
  6291.847   39295.6979    0.1
  6291.864   40094.4940    0.1
  6291.882   40469.8955    0.1
  6291.899   40728.1847    0.1
  6291.917   40433.8594    0.1
  6291.934   40014.8845    0.1
  6291.951   39309.4339    0.1
  6291.969   38006.5649    0.1
  6291.986   36764.4969    0.1
  6292.004   35184.9451    0.1
  6292.021   32949.7724    0.1
  6292.038   31154.5042    0.1
  6292.056   28927.2991    0.1
  6292.073   26428.9504    0.1
  6292.091   25082.8785    0.1
  6292.108   24097.1036    0.1
  6292.125   23866.2964    0.1
  6292.143   24323.2262    0.1
  6292.160   25217.5120    0.1
  6292.178   27097.6156    0.1
  6292.195   28639.8052    0.1
  6292.212   30352.7770    0.1
  6292.230   32519.3533    0.1
  6292.247   34043.3556    0.1
  6292.265   35682.5659    0.1
  6292.282   36970.6817    0.1
  6292.299   37824.4420    0.1
  6292.317   38403.5228    0.1
  6292.334   38674.5543    0.1
  6292.352   38818.4671    0.1
  6292.369   38886.8850    0.1
  6292.386   38848.6381    0.1
  6292.404   38991.6089    0.1
  6292.421   39169.7874    0.1
  6292.439   39358.0633    0.1
  6292.456   39471.2521    0.1
  6292.473   39595.1881    0.1
  6292.491   39472.8368    0.1
  6292.508   39320.9069    0.1
  6292.526   39187.6610    0.1
  6292.543   39384.8340    0.1
  6292.560   39608.0582    0.1
  6292.578   39648.6397    0.1
  6292.595   39657.4850    0.1
  6292.613   39307.4841    0.1
  6292.630   38487.0342    0.1
  6292.648   35798.0565    0.1
  6292.665   34077.2491    0.1
  6292.682   32734.2490    0.1
  6292.700   33666.2262    0.1
  6292.717   35956.6637    0.1
  6292.735   38320.3990    0.1
  6292.752   41062.1894    0.1
  6292.769   41717.0487    0.1
  6292.787   41820.7110    0.1
  6292.804   41359.1491    0.1
  6292.822   40651.0728    0.1
  6292.839   39946.2563    0.1
  6292.856   38973.1723    0.1
  6292.874   38471.2464    0.1
  6292.891   38048.9262    0.1
  6292.909   37643.0040    0.1
  6292.926   37427.6646    0.1
  6292.943   37347.6531    0.1
  6292.961   37278.4585    0.1
  6292.978   37235.0286    0.1
  6292.996   37273.8013    0.1
  6293.013   37297.8627    0.1
  6293.030   37478.0969    0.1
  6293.048   37656.5347    0.1
  6293.065   37806.1644    0.1
  6293.083   37915.9405    0.1
  6293.100   37964.6198    0.1
  6293.117   37938.6347    0.1
  6293.135   38113.3881    0.1
  6293.152   38237.9037    0.1
  6293.170   38327.9878    0.1
  6293.187   38541.4899    0.1
  6293.204   38733.8163    0.1
  6293.222   39041.2804    0.1
  6293.239   39152.9325    0.1
  6293.257   39284.8210    0.1
  6293.274   39517.6580    0.1
  6293.291   39658.3623    0.1
  6293.309   39663.1994    0.1
  6293.326   39570.0674    0.1
  6293.344   39489.3207    0.1
  6293.361   39392.4812    0.1
  6293.378   39151.7593    0.1
  6293.396   38794.8937    0.1
  6293.413   38060.3984    0.1
  6293.431   36745.5718    0.1
  6293.448   33945.2657    0.1
  6293.465   31950.7725    0.1
  6293.483   30879.7139    0.1
  6293.500   31793.2518    0.1
  6293.518   34247.6916    0.1
  6293.535   37306.6087    0.1
  6293.553   39555.8266    0.1
  6293.570   40275.1339    0.1
  6293.587   40541.3567    0.1
  6293.605   40528.3397    0.1
  6293.622   40399.0123    0.1
  6293.640   40229.9194    0.1
  6293.657   39923.0128    0.1
  6293.674   39712.5605    0.1
  6293.692   39482.8215    0.1
  6293.709   38615.9710    0.1
  6293.727   38024.6969    0.1
  6293.744   37422.5270    0.1
  6293.761   36294.4883    0.1
  6293.779   34972.1423    0.1
  6293.796   33617.3179    0.1
  6293.814   30600.7998    0.1
  6293.831   28281.4585    0.1
  6293.848   25387.1448    0.1
  6293.866   21308.0729    0.1
  6293.883   18301.9317    0.1
  6293.901   15717.9401    0.1
  6293.918   12882.4669    0.1
  6293.935   11297.9854    0.1
  6293.953   10376.6138    0.1
  6293.970   9887.0439    0.1
  6293.988   10233.8331    0.1
  6294.005   10978.0334    0.1
  6294.022   12422.2357    0.1
  6294.040   14220.7014    0.1
  6294.057   16589.5328    0.1
  6294.075   18581.1577    0.1
  6294.092   20899.1345    0.1
  6294.109   22593.0658    0.1
  6294.127   24189.6631    0.1
  6294.144   25709.8728    0.1
  6294.162   26882.6296    0.1
  6294.179   28211.3664    0.1
  6294.196   29985.7294    0.1
  6294.214   31286.7741    0.1
  6294.231   32777.8719    0.1
  6294.249   34227.7294    0.1
  6294.266   35325.7944    0.1
  6294.283   36228.8104    0.1
  6294.301   36897.1107    0.1
  6294.318   36959.4778    0.1
  6294.336   36927.7584    0.1
  6294.353   36586.9533    0.1
  6294.371   36312.7956    0.1
  6294.388   35948.8268    0.1
  6294.405   35723.5365    0.1
  6294.423   35607.9812    0.1
  6294.440   35769.1742    0.1
  6294.458   36120.3498    0.1
  6294.475   36582.6923    0.1
  6294.492   36978.5799    0.1
  6294.510   37228.9944    0.1
  6294.527   37593.8502    0.1
  6294.545   37934.0611    0.1
  6294.562   38406.1926    0.1
  6294.579   38835.7153    0.1
  6294.597   39279.4481    0.1
  6294.614   39790.4581    0.1
  6294.632   40054.2734    0.1
  6294.649   40238.6372    0.1
  6294.666   40455.0717    0.1
  6294.684   40444.2829    0.1
  6294.701   40389.5116    0.1
  6294.719   40416.3208    0.1
  6294.736   40400.8742    0.1
  6294.753   40321.8524    0.1
  6294.771   40190.4833    0.1
  6294.788   40059.7336    0.1
  6294.806   39749.4863    0.1
  6294.823   39326.9406    0.1
  6294.840   38961.5680    0.1
  6294.858   38664.3174    0.1
  6294.875   38436.4954    0.1
  6294.893   38573.7267    0.1
  6294.910   38744.7810    0.1
  6294.927   38942.4060    0.1
  6294.945   39153.8206    0.1
  6294.962   39070.0082    0.1
  6294.980   38875.0328    0.1
  6294.997   37546.1020    0.1
  6295.014   36528.6142    0.1
  6295.032   35488.1665    0.1
  6295.049   34058.9999    0.1
  6295.067   33432.8718    0.1
  6295.084   33223.4540    0.1
  6295.101   33487.9452    0.1
  6295.119   33989.9257    0.1
  6295.136   34623.4834    0.1
  6295.154   35706.6281    0.1
  6295.171   36446.2136    0.1
  6295.189   36924.6067    0.1
  6295.206   37512.7928    0.1
  6295.223   38112.8121    0.1
  6295.241   38555.5594    0.1
  6295.258   39103.3347    0.1
  6295.276   39604.0307    0.1
  6295.293   39877.5671    0.1
  6295.310   40114.3582    0.1
  6295.328   40298.4265    0.1
  6295.345   40157.9533    0.1
  6295.363   39839.5666    0.1
  6295.380   39210.9258    0.1
  6295.397   38657.5302    0.1
  6295.415   38266.9526    0.1
  6295.432   38046.4340    0.1
  6295.450   37947.5288    0.1
  6295.467   38081.6295    0.1
  6295.484   38439.2594    0.1
  6295.502   39016.3415    0.1
  6295.519   39504.9474    0.1
  6295.537   39989.5116    0.1
  6295.554   40137.5002    0.1
  6295.571   40252.8955    0.1
  6295.589   40276.2749    0.1
  6295.606   39642.9665    0.1
  6295.624   38985.1543    0.1
  6295.641   37484.9333    0.1
  6295.658   35069.7313    0.1
  6295.676   32915.5755    0.1
  6295.693   30568.9574    0.1
  6295.711   30765.0576    0.1
  6295.728   32065.5707    0.1
  6295.745   35625.7393    0.1
  6295.763   38430.4619    0.1
  6295.780   39857.3842    0.1
  6295.798   40597.1216    0.1
  6295.815   40951.0567    0.1
  6295.832   41074.5254    0.1
  6295.850   41154.5784    0.1
  6295.867   41075.4603    0.1
  6295.885   41043.0444    0.1
  6295.902   41066.1360    0.1
  6295.919   41026.2723    0.1
  6295.937   40758.6466    0.1
  6295.954   40531.4793    0.1
  6295.972   40113.4534    0.1
  6295.989   39615.5339    0.1
  6296.006   39072.4425    0.1
  6296.024   38578.8810    0.1
  6296.041   38317.7652    0.1
  6296.059   37987.6107    0.1
  6296.076   37762.6770    0.1
  6296.094   37758.4548    0.1
  6296.111   37850.9599    0.1
  6296.128   38092.0745    0.1
  6296.146   38156.7327    0.1
  6296.163   38223.3655    0.1
  6296.181   38159.3642    0.1
  6296.198   37973.1586    0.1
  6296.215   37436.6906    0.1
  6296.233   36584.7539    0.1
  6296.250   35725.3415    0.1
  6296.268   34567.5925    0.1
  6296.285   32971.4296    0.1
  6296.302   30145.0938    0.1
  6296.320   27857.9299    0.1
  6296.337   25385.9674    0.1
  6296.355   21682.7110    0.1
  6296.372   19739.5753    0.1
  6296.389   18392.5576    0.1
  6296.407   17827.2296    0.1
  6296.424   18102.4087    0.1
  6296.442   18546.2016    0.1
  6296.459   19323.1876    0.1
  6296.476   20646.8851    0.1
  6296.494   23360.8586    0.1
  6296.511   27639.8822    0.1
  6296.529   31443.1707    0.1
  6296.546   34447.2633    0.1
  6296.563   36636.1029    0.1
  6296.581   37907.7157    0.1
  6296.598   38472.0180    0.1
  6296.616   38872.7809    0.1
  6296.633   39363.1938    0.1
  6296.650   39621.0944    0.1
  6296.668   39741.4173    0.1
  6296.685   39908.2648    0.1
  6296.703   39969.7819    0.1
  6296.720   40052.2971    0.1
  6296.737   40135.6761    0.1
  6296.755   40082.7519    0.1
  6296.772   40032.6527    0.1
  6296.790   39979.2687    0.1
  6296.807   40022.7055    0.1
  6296.824   40011.7460    0.1
  6296.842   39951.4274    0.1
  6296.859   39566.9968    0.1
  6296.877   39308.6267    0.1
  6296.894   38969.7277    0.1
  6296.912   38322.8805    0.1
  6296.929   37981.3164    0.1
  6296.946   37590.1076    0.1
  6296.964   36908.0593    0.1
  6296.981   36396.6745    0.1
  6296.999   35707.5360    0.1
  6297.016   34428.8351    0.1
  6297.033   33475.5365    0.1
  6297.051   32232.8634    0.1
  6297.068   30620.9767    0.1
  6297.086   30080.6873    0.1
  6297.103   30008.9692    0.1
  6297.120   30572.0881    0.1
  6297.138   31538.6974    0.1
  6297.155   32441.4690    0.1
  6297.173   33718.2878    0.1
  6297.190   34513.1081    0.1
  6297.207   35110.5186    0.1
  6297.225   35573.0279    0.1
  6297.242   35969.9316    0.1
  6297.260   36416.1936    0.1
  6297.277   36964.5283    0.1
  6297.294   37514.9899    0.1
  6297.312   37998.4406    0.1
  6297.329   38821.7764    0.1
  6297.347   39428.4373    0.1
  6297.364   39780.0351    0.1
  6297.381   40006.1525    0.1
  6297.399   40189.0925    0.1
  6297.416   39768.5600    0.1
  6297.434   39117.6735    0.1
  6297.451   37522.2281    0.1
  6297.468   35635.9733    0.1
  6297.486   33431.7490    0.1
  6297.503   29782.0528    0.1
  6297.521   25866.4423    0.1
  6297.538   22897.6642    0.1
  6297.555   18869.6624    0.1
  6297.573   15590.3597    0.1
  6297.590   13564.2452    0.1
  6297.608   11676.9880    0.1
  6297.625   10547.6738    0.1
  6297.642   10057.2099    0.1
  6297.660   9757.1665    0.1
  6297.677   9560.2242    0.1
  6297.695   9437.1276    0.1
  6297.712   9287.6090    0.1
  6297.729   8857.2778    0.1
  6297.747   8501.1176    0.1
  6297.764   8189.8125    0.1
  6297.782   8140.9648    0.1
  6297.799   8863.1942    0.1
  6297.817   10000.5601    0.1
  6297.834   12513.3579    0.1
  6297.851   15446.5748    0.1
  6297.869   18921.0289    0.1
  6297.886   22498.8480    0.1
  6297.904   26309.5779    0.1
  6297.921   28969.2280    0.1
  6297.938   31480.6669    0.1
  6297.956   33303.6206    0.1
  6297.973   34221.5068    0.1
  6297.991   34976.8453    0.1
  6298.008   35924.0950    0.1
  6298.025   36398.1656    0.1
  6298.043   36934.5219    0.1
  6298.060   37875.3017    0.1
  6298.078   38221.7526    0.1
  6298.095   38473.2074    0.1
  6298.112   38691.6009    0.1
  6298.130   38629.6407    0.1
  6298.147   38442.4122    0.1
  6298.165   38035.4302    0.1
  6298.182   37931.1836    0.1
  6298.199   37963.0523    0.1
  6298.217   38156.8780    0.1
  6298.234   38453.2611    0.1
  6298.252   38684.7601    0.1
  6298.269   39189.9322    0.1
  6298.286   39407.6536    0.1
  6298.304   39464.9867    0.1
  6298.321   39463.4246    0.1
  6298.339   39476.3273    0.1
  6298.356   39499.4349    0.1
  6298.373   39510.7951    0.1
  6298.391   39284.2203    0.1
  6298.408   39349.2715    0.1
  6298.426   39129.6276    0.1
  6298.443   38658.6198    0.1
  6298.460   38570.7686    0.1
  6298.478   38429.9156    0.1
  6298.495   38242.5648    0.1
  6298.513   38116.7729    0.1
  6298.530   38073.0787    0.1
  6298.547   38125.5809    0.1
  6298.565   38315.6596    0.1
  6298.582   38474.6214    0.1
  6298.600   38631.5997    0.1
  6298.617   39159.9634    0.1
  6298.635   39581.9492    0.1
  6298.652   39833.8198    0.1
  6298.669   39909.0041    0.1
  6298.687   39680.6356    0.1
  6298.704   39442.6998    0.1
  6298.722   38849.5724    0.1
  6298.739   37942.1451    0.1
  6298.756   36855.1593    0.1
  6298.774   35327.3189    0.1
  6298.791   33337.1355    0.1
  6298.809   31207.2755    0.1
  6298.826   28623.4055    0.1
  6298.843   24551.5427    0.1
  6298.861   21724.6960    0.1
  6298.878   18808.4390    0.1
  6298.896   15140.6369    0.1
  6298.913   12984.4705    0.1
  6298.930   11307.3140    0.1
  6298.948   9803.9090    0.1
  6298.965   9722.3091    0.1
  6298.983   10762.0836    0.1
  6299.000   13257.2276    0.1
  6299.017   16299.7529    0.1
  6299.035   19306.0485    0.1
  6299.052   22551.1984    0.1
  6299.070   25852.3400    0.1
  6299.087   27841.6487    0.1
  6299.104   29410.8977    0.1
  6299.122   30845.4732    0.1
  6299.139   31381.5613    0.1
  6299.157   31547.0121    0.1
  6299.174   30939.6193    0.1
  6299.191   30676.9800    0.1
  6299.209   30688.0520    0.1
  6299.226   30684.6221    0.1
  6299.244   31614.6625    0.1
  6299.261   32448.5269    0.1
  6299.278   33780.9614    0.1
  6299.296   35481.8157    0.1
  6299.313   36462.7405    0.1
  6299.331   37462.9888    0.1
  6299.348   38599.0665    0.1
  6299.365   39219.6177    0.1
  6299.383   39685.9154    0.1
  6299.400   40603.8765    0.1
  6299.418   40769.4993    0.1
  6299.435   41056.1150    0.1
  6299.452   41056.0109    0.1
  6299.470   40824.2590    0.1
  6299.487   40378.4027    0.1
  6299.505   39679.0496    0.1
  6299.522   38779.7383    0.1
  6299.540   38124.4842    0.1
  6299.557   37765.8305    0.1
  6299.574   37390.5160    0.1
  6299.592   37408.7486    0.1
  6299.609   37590.2216    0.1
  6299.627   38019.0067    0.1
  6299.644   38227.5805    0.1
  6299.661   38326.5590    0.1
  6299.679   38009.7130    0.1
  6299.696   36563.7256    0.1
  6299.714   34602.8631    0.1
  6299.731   31653.5904    0.1
  6299.748   29797.5449    0.1
  6299.766   30609.6575    0.1
  6299.783   32072.4665    0.1
  6299.801   35928.6480    0.1
  6299.818   37659.4531    0.1
  6299.835   38835.4047    0.1
  6299.853   39360.6793    0.1
  6299.870   39284.9637    0.1
  6299.888   39132.7065    0.1
  6299.905   38960.1322    0.1
  6299.922   38735.5539    0.1
  6299.940   38667.7403    0.1
  6299.957   38749.4696    0.1
  6299.975   38870.6178    0.1
